Timestamp,TP9,AF7,AF8,TP10,AUX
2023-10-11 16:09:51.717379,806.2637329101562,784.908447265625,801.8314819335938,802.6373901367188,797.3992919921875
2023-10-11 16:09:51.719884,802.6373901367188,789.3406372070312,802.2344360351562,799.010986328125,724.4688720703125
2023-10-11 16:09:51.721689,790.1465454101562,786.923095703125,800.6226806640625,794.5787353515625,689.010986328125
2023-10-11 16:09:51.722550,787.7289428710938,781.6849975585938,802.2344360351562,796.5933837890625,724.4688720703125
2023-10-11 16:09:51.723582,794.5787353515625,784.1025390625,804.6520385742188,797.8021850585938,777.6557006835938
2023-10-11 16:09:51.724461,793.3699340820312,788.5347900390625,804.6520385742188,796.996337890625,826.8131713867188
2023-10-11 16:09:51.725297,787.7289428710938,787.7289428710938,806.6666870117188,796.5933837890625,843.7362670898438
2023-10-11 16:09:51.726382,787.3259887695312,788.5347900390625,809.89013671875,801.025634765625,851.7948608398438
2023-10-11 16:09:51.727314,790.952392578125,786.923095703125,803.8461303710938,799.8168334960938,971.8681030273438
2023-10-11 16:09:51.728230,792.1611938476562,789.3406372070312,799.8168334960938,794.5787353515625,870.3296508789062
2023-10-11 16:09:51.729231,790.952392578125,792.1611938476562,803.8461303710938,794.981689453125,752.2710571289062
2023-10-11 16:09:51.730443,783.6996459960938,789.7435913085938,803.4432373046875,789.3406372070312,790.952392578125
2023-10-11 16:09:51.744301,786.1171875,786.923095703125,803.4432373046875,795.3846435546875,787.7289428710938
2023-10-11 16:09:51.745701,791.7582397460938,786.5201416015625,803.040283203125,802.2344360351562,728.901123046875
2023-10-11 16:09:51.746711,791.3552856445312,784.908447265625,805.054931640625,802.2344360351562,742.1978149414062
2023-10-11 16:09:51.748313,793.7728881835938,783.2966918945312,807.87548828125,800.2197875976562,844.1392211914062
2023-10-11 16:09:51.749599,788.1318969726562,784.5054931640625,805.4578857421875,801.4285888671875,821.97802734375
2023-10-11 16:09:51.762140,792.967041015625,784.5054931640625,804.6520385742188,807.069580078125,799.010986328125
2023-10-11 16:09:51.763552,803.040283203125,790.1465454101562,807.4725341796875,805.8607788085938,794.981689453125
2023-10-11 16:09:51.764980,801.8314819335938,791.3552856445312,804.2490844726562,800.2197875976562,917.069580078125
2023-10-11 16:09:51.768509,802.2344360351562,786.923095703125,801.025634765625,802.2344360351562,1056.886474609375
2023-10-11 16:09:51.769957,796.1904907226562,789.7435913085938,802.2344360351562,803.4432373046875,800.6226806640625
2023-10-11 16:09:51.771610,788.1318969726562,788.5347900390625,803.4432373046875,797.3992919921875,684.1758422851562
2023-10-11 16:09:51.773305,785.7142944335938,784.908447265625,801.025634765625,796.996337890625,808.2783813476562
2023-10-11 16:09:51.787658,792.5640869140625,787.3259887695312,801.8314819335938,801.025634765625,769.1941528320312
2023-10-11 16:09:51.788832,801.8314819335938,788.937744140625,803.040283203125,799.8168334960938,734.1392211914062
2023-10-11 16:09:51.790233,802.6373901367188,788.937744140625,801.4285888671875,792.5640869140625,768.7911987304688
2023-10-11 16:09:51.792326,806.6666870117188,790.952392578125,797.8021850585938,793.7728881835938,761.94140625
2023-10-11 16:09:51.794851,826.00732421875,796.5933837890625,798.2051391601562,805.8607788085938,700.2930297851562
2023-10-11 16:09:51.796397,821.1721801757812,794.5787353515625,802.6373901367188,798.2051391601562,691.8314819335938
2023-10-11 16:09:51.798069,804.6520385742188,784.5054931640625,799.8168334960938,784.908447265625,826.00732421875
2023-10-11 16:09:51.799960,809.4871826171875,781.2820434570312,797.3992919921875,794.981689453125,1004.5054931640625
2023-10-11 16:09:51.803916,796.5933837890625,781.6849975585938,800.6226806640625,792.967041015625,826.00732421875
2023-10-11 16:09:51.805603,784.5054931640625,778.8644409179688,805.8607788085938,791.7582397460938,651.5384521484375
2023-10-11 16:09:51.806815,788.937744140625,775.6410522460938,806.6666870117188,799.010986328125,736.5567626953125
2023-10-11 16:09:51.807960,791.7582397460938,776.4468994140625,805.054931640625,802.6373901367188,858.2417602539062
2023-10-11 16:09:51.849644,792.1611938476562,778.8644409179688,805.8607788085938,811.098876953125,810.6959838867188
2023-10-11 16:09:51.851131,784.908447265625,778.05859375,807.4725341796875,814.3223266601562,709.5604248046875
2023-10-11 16:09:51.852942,782.4908447265625,774.8351440429688,808.2783813476562,811.90478515625,781.2820434570312
2023-10-11 16:09:51.854312,792.1611938476562,775.2380981445312,806.6666870117188,813.5164794921875,817.94873046875
2023-10-11 16:09:51.855654,801.4285888671875,776.8497924804688,806.6666870117188,819.96337890625,761.5384521484375
2023-10-11 16:09:51.856665,800.6226806640625,770.4029541015625,805.054931640625,813.91943359375,808.6813354492188
2023-10-11 16:09:51.857658,790.5494384765625,767.5823974609375,802.6373901367188,805.8607788085938,973.8828125
2023-10-11 16:09:51.862399,785.3113403320312,766.3735961914062,800.6226806640625,801.8314819335938,953.3333129882812
2023-10-11 16:09:51.863494,790.5494384765625,767.1795043945312,800.2197875976562,795.3846435546875,727.2893676757812
2023-10-11 16:09:51.864514,797.8021850585938,773.2234497070312,803.040283203125,793.7728881835938,722.05126953125
2023-10-11 16:09:51.865964,802.2344360351562,776.8497924804688,804.2490844726562,796.996337890625,781.2820434570312
2023-10-11 16:09:51.866781,795.7875366210938,777.2527465820312,803.040283203125,791.7582397460938,736.959716796875
2023-10-11 16:09:51.913348,792.5640869140625,777.2527465820312,804.2490844726562,786.1171875,688.2051391601562
2023-10-11 16:09:51.914712,798.2051391601562,777.6557006835938,804.2490844726562,795.7875366210938,743.4066162109375
2023-10-11 16:09:51.916205,801.8314819335938,777.2527465820312,803.040283203125,802.6373901367188,896.1171875
2023-10-11 16:09:51.917876,796.996337890625,775.6410522460938,803.4432373046875,800.2197875976562,818.7545776367188
2023-10-11 16:09:51.919362,788.937744140625,771.2088012695312,804.6520385742188,796.1904907226562,703.113525390625
2023-10-11 16:09:51.921124,789.3406372070312,767.5823974609375,806.2637329101562,796.996337890625,821.1721801757812
2023-10-11 16:09:51.923344,796.1904907226562,763.5531005859375,805.8607788085938,798.6080322265625,1051.6483154296875
2023-10-11 16:09:51.924895,794.981689453125,757.106201171875,806.6666870117188,794.981689453125,915.054931640625
2023-10-11 16:09:51.928493,799.8168334960938,751.4652099609375,809.4871826171875,792.5640869140625,728.901123046875
2023-10-11 16:09:51.930712,802.2344360351562,748.2417602539062,803.040283203125,796.5933837890625,753.4798583984375
2023-10-11 16:09:51.932277,793.3699340820312,746.2271118164062,800.6226806640625,799.4139404296875,732.12451171875
2023-10-11 16:09:51.933823,793.7728881835938,745.4212646484375,805.8607788085938,801.4285888671875,678.5347900390625
2023-10-11 16:09:51.945832,802.6373901367188,741.3919677734375,805.054931640625,801.4285888671875,704.7252807617188
2023-10-11 16:09:51.947354,805.054931640625,733.3333129882812,807.069580078125,798.6080322265625,771.6116943359375
2023-10-11 16:09:51.948835,799.4139404296875,725.2747192382812,807.87548828125,794.1758422851562,784.1025390625
2023-10-11 16:09:51.949774,792.967041015625,718.4249267578125,801.4285888671875,790.952392578125,706.7399291992188
2023-10-11 16:09:51.950852,792.5640869140625,714.7985229492188,801.4285888671875,787.7289428710938,689.8168334960938
2023-10-11 16:09:51.952229,799.4139404296875,713.99267578125,805.4578857421875,788.1318969726562,878.3883056640625
2023-10-11 16:09:51.953696,801.4285888671875,718.8278198242188,805.054931640625,797.8021850585938,954.945068359375
2023-10-11 16:09:51.954809,798.6080322265625,724.06591796875,801.4285888671875,799.4139404296875,784.1025390625
2023-10-11 16:09:51.957945,793.3699340820312,726.886474609375,801.8314819335938,795.7875366210938,684.981689453125
2023-10-11 16:09:51.973787,788.1318969726562,728.09521484375,803.8461303710938,794.5787353515625,814.7252807617188
2023-10-11 16:09:51.976459,794.5787353515625,731.7216186523438,802.2344360351562,799.8168334960938,861.062255859375
2023-10-11 16:09:51.977698,800.6226806640625,735.3479614257812,802.6373901367188,799.8168334960938,758.7179565429688
2023-10-11 16:09:51.987129,795.7875366210938,740.1831665039062,804.2490844726562,799.010986328125,780.0732421875
2023-10-11 16:09:51.988222,790.1465454101562,747.4359130859375,804.6520385742188,799.010986328125,798.6080322265625
2023-10-11 16:09:51.989206,790.5494384765625,747.032958984375,804.2490844726562,796.996337890625,715.2014770507812
2023-10-11 16:09:51.990295,798.6080322265625,747.032958984375,807.069580078125,800.2197875976562,693.040283203125
2023-10-11 16:09:51.991192,797.8021850585938,749.4505615234375,807.4725341796875,798.6080322265625,769.5970458984375
2023-10-11 16:09:51.991928,793.3699340820312,752.6740112304688,800.2197875976562,793.7728881835938,871.94140625
2023-10-11 16:09:51.993064,789.3406372070312,759.9267578125,798.2051391601562,792.1611938476562,843.3333129882812
2023-10-11 16:09:51.994165,786.1171875,764.3589477539062,799.4139404296875,791.7582397460938,742.6007080078125
2023-10-11 16:09:51.995091,788.5347900390625,763.9560546875,796.996337890625,789.7435913085938,761.94140625
2023-10-11 16:09:51.997587,792.1611938476562,770.0,795.7875366210938,790.5494384765625,1000.4761962890625
2023-10-11 16:09:51.998391,797.8021850585938,774.4322509765625,793.7728881835938,792.5640869140625,933.99267578125
2023-10-11 16:09:51.999224,803.4432373046875,777.2527465820312,794.1758422851562,802.6373901367188,774.029296875
2023-10-11 16:09:52.047205,800.2197875976562,776.0439453125,799.010986328125,805.8607788085938,792.5640869140625
2023-10-11 16:09:52.048528,788.5347900390625,776.0439453125,801.8314819335938,788.5347900390625,759.5238037109375
2023-10-11 16:09:52.050380,784.908447265625,776.0439453125,799.4139404296875,783.6996459960938,729.7069702148438
2023-10-11 16:09:52.052462,786.1171875,772.8204956054688,798.6080322265625,786.923095703125,740.1831665039062
2023-10-11 16:09:52.056838,778.05859375,773.6264038085938,803.4432373046875,782.893798828125,782.087890625
2023-10-11 16:09:52.060873,786.1171875,774.8351440429688,805.8607788085938,783.6996459960938,783.6996459960938
2023-10-11 16:09:52.062596,798.2051391601562,779.2673950195312,806.2637329101562,788.1318969726562,802.2344360351562
2023-10-11 16:09:52.064615,801.025634765625,782.087890625,807.87548828125,791.3552856445312,794.1758422851562
2023-10-11 16:09:52.065966,805.054931640625,785.3113403320312,809.89013671875,803.8461303710938,880.4029541015625
2023-10-11 16:09:52.068013,799.4139404296875,787.7289428710938,811.5018310546875,806.2637329101562,942.4542236328125
2023-10-11 16:09:52.069429,791.7582397460938,786.5201416015625,809.4871826171875,795.3846435546875,778.8644409179688
2023-10-11 16:09:52.079105,791.3552856445312,785.7142944335938,805.8607788085938,795.7875366210938,715.6043701171875
2023-10-11 16:09:52.090647,800.2197875976562,786.1171875,807.069580078125,804.6520385742188,851.3919677734375
2023-10-11 16:09:52.091949,803.4432373046875,787.3259887695312,805.4578857421875,805.8607788085938,834.06591796875
2023-10-11 16:09:52.093973,792.967041015625,789.7435913085938,802.2344360351562,807.4725341796875,723.2600708007812
2023-10-11 16:09:52.095723,790.952392578125,790.952392578125,800.6226806640625,813.113525390625,734.1392211914062
2023-10-11 16:09:52.097203,799.4139404296875,794.5787353515625,801.8314819335938,807.069580078125,784.1025390625
2023-10-11 16:09:52.098737,804.6520385742188,792.967041015625,804.6520385742188,802.6373901367188,843.3333129882812
2023-10-11 16:09:52.100144,801.8314819335938,790.952392578125,805.054931640625,803.040283203125,829.2307739257812
2023-10-11 16:09:52.101540,799.8168334960938,794.981689453125,807.4725341796875,805.8607788085938,832.05126953125
2023-10-11 16:09:52.102642,799.010986328125,792.1611938476562,807.4725341796875,812.3076782226562,969.047607421875
2023-10-11 16:09:52.105870,801.025634765625,789.7435913085938,805.4578857421875,808.2783813476562,826.4102783203125
2023-10-11 16:09:52.107237,809.89013671875,793.3699340820312,806.2637329101562,806.2637329101562,693.8461303710938
2023-10-11 16:09:52.109725,811.098876953125,794.981689453125,805.4578857421875,809.4871826171875,805.8607788085938
2023-10-11 16:09:52.146034,803.4432373046875,794.981689453125,803.040283203125,815.5311279296875,840.915771484375
2023-10-11 16:09:52.147233,798.2051391601562,796.996337890625,804.2490844726562,813.91943359375,796.996337890625
2023-10-11 16:09:52.148584,792.1611938476562,798.6080322265625,804.2490844726562,809.89013671875,705.5311279296875
2023-10-11 16:09:52.149750,792.1611938476562,799.8168334960938,803.8461303710938,811.90478515625,747.4359130859375
2023-10-11 16:09:52.150942,794.5787353515625,797.8021850585938,802.6373901367188,806.2637329101562,818.7545776367188
2023-10-11 16:09:52.152190,793.3699340820312,794.5787353515625,803.8461303710938,800.2197875976562,859.047607421875
2023-10-11 16:09:52.153303,791.7582397460938,796.5933837890625,805.054931640625,805.054931640625,838.09521484375
2023-10-11 16:09:52.154545,797.3992919921875,790.1465454101562,807.4725341796875,815.1282348632812,853.003662109375
2023-10-11 16:09:52.155530,813.113525390625,785.7142944335938,807.069580078125,830.03662109375,898.1318969726562
2023-10-11 16:09:52.156540,810.2930297851562,790.952392578125,799.4139404296875,819.5604248046875,779.2673950195312
2023-10-11 16:09:52.157523,789.3406372070312,794.1758422851562,798.2051391601562,798.2051391601562,733.7362670898438
2023-10-11 16:09:52.158539,785.7142944335938,799.010986328125,797.8021850585938,801.025634765625,751.062255859375
2023-10-11 16:09:52.170164,795.7875366210938,799.8168334960938,794.1758422851562,807.069580078125,725.2747192382812
2023-10-11 16:09:52.179092,804.2490844726562,799.8168334960938,793.3699340820312,806.2637329101562,713.1868286132812
2023-10-11 16:09:52.180441,803.8461303710938,804.6520385742188,790.5494384765625,799.8168334960938,745.4212646484375
2023-10-11 16:09:52.181727,786.923095703125,802.2344360351562,789.3406372070312,786.5201416015625,836.886474609375
2023-10-11 16:09:52.183107,778.4615478515625,802.2344360351562,791.7582397460938,782.4908447265625,807.069580078125
2023-10-11 16:09:52.184481,783.6996459960938,803.040283203125,792.967041015625,790.1465454101562,751.8681030273438
2023-10-11 16:09:52.185903,798.2051391601562,801.4285888671875,790.5494384765625,791.3552856445312,844.945068359375
2023-10-11 16:09:52.187423,809.084228515625,798.2051391601562,785.7142944335938,790.1465454101562,996.4468994140625
2023-10-11 16:09:52.188766,801.025634765625,797.8021850585938,784.908447265625,792.5640869140625,900.952392578125
2023-10-11 16:09:52.190047,789.7435913085938,797.8021850585938,786.1171875,788.1318969726562,742.6007080078125
2023-10-11 16:09:52.192806,790.5494384765625,796.5933837890625,789.3406372070312,784.908447265625,786.923095703125
2023-10-11 16:09:52.197682,797.3992919921875,792.5640869140625,794.5787353515625,790.1465454101562,803.4432373046875
2023-10-11 16:09:52.222197,799.4139404296875,788.937744140625,794.981689453125,784.908447265625,749.4505615234375
2023-10-11 16:09:52.223802,799.8168334960938,790.1465454101562,794.1758422851562,782.087890625,753.8828125
2023-10-11 16:09:52.225457,801.4285888671875,792.1611938476562,800.6226806640625,788.5347900390625,786.1171875
2023-10-11 16:09:52.226877,790.952392578125,793.3699340820312,802.6373901367188,789.7435913085938,751.8681030273438
2023-10-11 16:09:52.228713,785.7142944335938,792.1611938476562,796.1904907226562,783.2966918945312,730.10986328125
2023-10-11 16:09:52.230235,796.1904907226562,791.3552856445312,796.5933837890625,774.8351440429688,828.02197265625
2023-10-11 16:09:52.231469,797.3992919921875,786.923095703125,797.3992919921875,774.8351440429688,1004.5054931640625
2023-10-11 16:09:52.233661,784.5054931640625,785.3113403320312,792.5640869140625,777.6557006835938,1021.025634765625
2023-10-11 16:09:52.238750,779.6703491210938,785.3113403320312,792.5640869140625,774.4322509765625,753.076904296875
2023-10-11 16:09:52.240938,784.5054931640625,785.3113403320312,795.3846435546875,769.5970458984375,676.5201416015625
2023-10-11 16:09:52.243151,789.7435913085938,785.3113403320312,792.967041015625,771.2088012695312,855.8241577148438
2023-10-11 16:09:52.245666,790.1465454101562,788.1318969726562,787.3259887695312,773.2234497070312,848.1685180664062
2023-10-11 16:09:52.281862,788.5347900390625,791.7582397460938,788.1318969726562,770.8058471679688,733.3333129882812
2023-10-11 16:09:52.283853,791.7582397460938,794.5787353515625,792.5640869140625,775.6410522460938,737.7655639648438
2023-10-11 16:09:52.285709,792.967041015625,792.967041015625,788.5347900390625,774.029296875,782.4908447265625
2023-10-11 16:09:52.293145,792.5640869140625,788.5347900390625,786.5201416015625,775.6410522460938,763.1502075195312
2023-10-11 16:09:52.294292,788.5347900390625,790.952392578125,789.3406372070312,785.3113403320312,732.12451171875
2023-10-11 16:09:52.295762,786.5201416015625,794.981689453125,793.3699340820312,794.1758422851562,834.06591796875
2023-10-11 16:09:52.297233,788.1318969726562,794.1758422851562,795.3846435546875,797.3992919921875,1019.8168334960938
2023-10-11 16:09:52.301641,791.3552856445312,795.3846435546875,793.3699340820312,792.967041015625,864.2857055664062
2023-10-11 16:09:52.303223,803.8461303710938,796.5933837890625,795.3846435546875,794.5787353515625,694.6520385742188
2023-10-11 16:09:52.305979,816.3369750976562,797.3992919921875,798.2051391601562,803.8461303710938,813.5164794921875
2023-10-11 16:09:52.308971,816.3369750976562,797.8021850585938,795.7875366210938,809.4871826171875,896.923095703125
2023-10-11 16:09:52.310803,809.89013671875,798.2051391601562,794.1758422851562,807.069580078125,756.3003540039062
2023-10-11 16:09:52.318947,809.084228515625,796.996337890625,799.8168334960938,810.2930297851562,720.4395751953125
2023-10-11 16:09:52.320793,812.3076782226562,793.3699340820312,801.8314819335938,807.87548828125,773.6264038085938
2023-10-11 16:09:52.322649,815.1282348632812,793.3699340820312,800.2197875976562,810.2930297851562,763.1502075195312
2023-10-11 16:09:52.324258,807.4725341796875,796.5933837890625,801.8314819335938,814.3223266601562,720.4395751953125
2023-10-11 16:09:52.325469,798.2051391601562,799.010986328125,800.2197875976562,803.8461303710938,712.7838745117188
2023-10-11 16:09:52.326785,807.069580078125,796.5933837890625,801.025634765625,805.054931640625,867.5091552734375
2023-10-11 16:09:52.328129,813.5164794921875,796.996337890625,802.6373901367188,803.8461303710938,919.084228515625
2023-10-11 16:09:52.329677,811.098876953125,800.2197875976562,801.8314819335938,793.7728881835938,797.8021850585938
2023-10-11 16:09:52.331152,805.4578857421875,796.996337890625,800.6226806640625,792.967041015625,750.6593627929688
2023-10-11 16:09:52.332615,797.8021850585938,796.5933837890625,801.025634765625,796.996337890625,855.8241577148438
2023-10-11 16:09:52.334034,797.8021850585938,801.4285888671875,804.6520385742188,799.4139404296875,822.7838745117188
2023-10-11 16:09:52.335767,805.054931640625,801.4285888671875,799.8168334960938,796.996337890625,718.02197265625
2023-10-11 16:09:52.378806,809.4871826171875,797.3992919921875,794.981689453125,795.3846435546875,841.3186645507812
2023-10-11 16:09:52.380767,801.4285888671875,792.967041015625,795.7875366210938,799.010986328125,926.7399291992188
2023-10-11 16:09:52.382337,792.967041015625,791.7582397460938,795.7875366210938,796.5933837890625,811.5018310546875
2023-10-11 16:09:52.384271,790.5494384765625,791.7582397460938,799.010986328125,794.981689453125,730.915771484375
2023-10-11 16:09:52.385664,792.5640869140625,796.5933837890625,805.054931640625,801.4285888671875,712.3809814453125
2023-10-11 16:09:52.404396,796.1904907226562,798.6080322265625,805.054931640625,805.054931640625,810.6959838867188
2023-10-11 16:09:52.406634,796.996337890625,795.7875366210938,800.2197875976562,801.8314819335938,880.4029541015625
2023-10-11 16:09:52.408895,794.1758422851562,798.6080322265625,797.3992919921875,797.8021850585938,739.7802124023438
2023-10-11 16:09:52.411069,790.1465454101562,796.1904907226562,797.8021850585938,801.025634765625,732.5274658203125
2023-10-11 16:09:52.412797,793.3699340820312,794.981689453125,798.2051391601562,801.4285888671875,953.7362670898438
2023-10-11 16:09:52.414532,792.1611938476562,795.7875366210938,794.981689453125,795.3846435546875,882.4176025390625
2023-10-11 16:09:52.416871,788.1318969726562,794.5787353515625,792.5640869140625,797.8021850585938,745.8241577148438
2023-10-11 16:09:52.418764,786.1171875,792.1611938476562,794.5787353515625,798.6080322265625,806.6666870117188
2023-10-11 16:09:52.420977,785.7142944335938,792.967041015625,793.7728881835938,790.1465454101562,794.1758422851562
2023-10-11 16:09:52.423131,790.5494384765625,795.3846435546875,794.981689453125,790.1465454101562,740.989013671875
2023-10-11 16:09:52.425690,794.981689453125,795.7875366210938,797.3992919921875,792.5640869140625,770.4029541015625
2023-10-11 16:09:52.427514,799.010986328125,797.8021850585938,796.5933837890625,792.967041015625,857.4359130859375
2023-10-11 16:09:52.429863,796.996337890625,799.010986328125,798.2051391601562,800.2197875976562,878.7911987304688
2023-10-11 16:09:52.431718,793.3699340820312,789.3406372070312,799.8168334960938,798.6080322265625,797.3992919921875
2023-10-11 16:09:52.433693,792.967041015625,782.893798828125,795.7875366210938,794.1758422851562,726.08056640625
2023-10-11 16:09:52.435741,798.2051391601562,784.1025390625,800.2197875976562,798.6080322265625,871.1355590820312
2023-10-11 16:09:52.437846,804.6520385742188,781.2820434570312,805.8607788085938,797.3992919921875,975.4945068359375
2023-10-11 16:09:52.440511,801.025634765625,779.6703491210938,803.4432373046875,799.8168334960938,785.3113403320312
2023-10-11 16:09:52.442115,797.8021850585938,780.879150390625,803.8461303710938,804.6520385742188,723.6630249023438
2023-10-11 16:09:52.451769,814.3223266601562,784.5054931640625,801.025634765625,811.098876953125,750.6593627929688
2023-10-11 16:09:52.453685,829.2307739257812,786.1171875,796.1904907226562,816.7399291992188,710.7692260742188
2023-10-11 16:09:52.455471,802.6373901367188,782.4908447265625,804.2490844726562,800.2197875976562,715.2014770507812
2023-10-11 16:09:52.457581,765.1648559570312,776.0439453125,808.6813354492188,783.2966918945312,759.120849609375
2023-10-11 16:09:52.459514,762.3442993164062,774.4322509765625,803.8461303710938,770.4029541015625,752.6740112304688
2023-10-11 16:09:52.464652,760.7326049804688,775.2380981445312,805.054931640625,747.8388061523438,779.6703491210938
2023-10-11 16:09:52.466695,751.062255859375,774.8351440429688,810.2930297851562,741.3919677734375,775.2380981445312
2023-10-11 16:09:52.480788,742.6007080078125,773.2234497070312,810.6959838867188,743.003662109375,829.6337280273438
2023-10-11 16:09:52.482181,726.4835205078125,765.5677490234375,813.113525390625,731.3186645507812,989.5970458984375
2023-10-11 16:09:52.483601,721.2454223632812,762.3442993164062,811.098876953125,720.4395751953125,826.4102783203125
2023-10-11 16:09:52.484776,722.8571166992188,763.1502075195312,811.90478515625,718.4249267578125,657.5823974609375
2023-10-11 16:09:52.488928,724.4688720703125,768.3883056640625,817.5457763671875,722.4542236328125,730.915771484375
2023-10-11 16:09:52.515730,732.5274658203125,778.05859375,819.1575317382812,734.945068359375,813.91943359375
2023-10-11 16:09:52.517672,740.5860595703125,778.8644409179688,813.5164794921875,748.2417602539062,761.94140625
2023-10-11 16:09:52.519425,744.6153564453125,773.6264038085938,806.6666870117188,755.4945068359375,712.3809814453125
2023-10-11 16:09:52.524780,753.076904296875,774.8351440429688,803.8461303710938,761.5384521484375,757.106201171875
2023-10-11 16:09:52.526850,769.1941528320312,782.4908447265625,804.2490844726562,773.6264038085938,786.1171875
2023-10-11 16:09:52.528824,777.2527465820312,785.3113403320312,807.069580078125,783.2966918945312,893.6996459960938
2023-10-11 16:09:52.531288,772.4176025390625,784.908447265625,805.8607788085938,787.3259887695312,884.029296875
2023-10-11 16:09:52.533899,768.3883056640625,782.087890625,803.4432373046875,786.5201416015625,862.6740112304688
2023-10-11 16:09:52.535527,778.4615478515625,781.2820434570312,803.8461303710938,790.952392578125,942.8571166992188
2023-10-11 16:09:52.537780,791.7582397460938,784.5054931640625,804.6520385742188,793.7728881835938,726.08056640625
2023-10-11 16:09:52.540186,798.6080322265625,783.2966918945312,804.2490844726562,793.7728881835938,661.2088012695312
2023-10-11 16:09:52.541675,801.8314819335938,783.6996459960938,804.2490844726562,800.2197875976562,855.4212646484375
2023-10-11 16:09:52.552680,805.054931640625,786.5201416015625,803.040283203125,798.2051391601562,802.2344360351562
2023-10-11 16:09:52.554484,807.87548828125,786.5201416015625,799.4139404296875,784.908447265625,670.0732421875
2023-10-11 16:09:52.557234,809.084228515625,786.923095703125,799.8168334960938,783.6996459960938,731.3186645507812
2023-10-11 16:09:52.558668,809.89013671875,788.937744140625,805.054931640625,791.7582397460938,788.5347900390625
2023-10-11 16:09:52.560333,805.054931640625,789.7435913085938,807.069580078125,796.5933837890625,763.5531005859375
2023-10-11 16:09:52.561801,786.923095703125,789.7435913085938,803.4432373046875,798.6080322265625,733.7362670898438
2023-10-11 16:09:52.563324,774.4322509765625,790.952392578125,803.4432373046875,796.5933837890625,829.6337280273438
2023-10-11 16:09:52.565136,782.893798828125,791.3552856445312,805.054931640625,801.4285888671875,1001.6849975585938
2023-10-11 16:09:52.567223,785.7142944335938,790.952392578125,801.025634765625,807.87548828125,871.94140625
2023-10-11 16:09:52.581138,784.1025390625,790.5494384765625,797.3992919921875,805.4578857421875,728.09521484375
2023-10-11 16:09:52.583186,785.7142944335938,790.1465454101562,794.5787353515625,795.7875366210938,728.09521484375
2023-10-11 16:09:52.585294,785.7142944335938,790.1465454101562,796.1904907226562,798.2051391601562,771.2088012695312
2023-10-11 16:09:52.618132,789.3406372070312,795.3846435546875,799.010986328125,802.2344360351562,748.2417602539062
2023-10-11 16:09:52.619576,796.5933837890625,800.2197875976562,797.8021850585938,804.2490844726562,728.901123046875
2023-10-11 16:09:52.621679,803.8461303710938,801.025634765625,797.3992919921875,806.6666870117188,825.2014770507812
2023-10-11 16:09:52.623616,799.010986328125,797.3992919921875,798.6080322265625,805.054931640625,839.7069702148438
2023-10-11 16:09:52.628666,793.7728881835938,797.3992919921875,799.010986328125,801.4285888671875,774.029296875
2023-10-11 16:09:52.630396,801.025634765625,798.2051391601562,800.2197875976562,800.6226806640625,789.3406372070312
2023-10-11 16:09:52.631814,810.2930297851562,796.996337890625,805.054931640625,809.084228515625,936.00732421875
2023-10-11 16:09:52.633747,807.87548828125,795.3846435546875,802.6373901367188,814.3223266601562,1031.5018310546875
2023-10-11 16:09:52.635161,801.4285888671875,790.952392578125,798.2051391601562,807.069580078125,821.97802734375
2023-10-11 16:09:52.636379,793.7728881835938,790.952392578125,799.4139404296875,799.8168334960938,720.4395751953125
2023-10-11 16:09:52.638667,787.7289428710938,790.952392578125,800.6226806640625,797.3992919921875,812.3076782226562
2023-10-11 16:09:52.641727,792.967041015625,788.937744140625,799.8168334960938,796.1904907226562,778.05859375
2023-10-11 16:09:52.653657,794.981689453125,789.7435913085938,795.7875366210938,797.3992919921875,707.5457763671875
2023-10-11 16:09:52.654794,791.7582397460938,788.5347900390625,792.1611938476562,798.6080322265625,770.4029541015625
2023-10-11 16:09:52.656340,793.7728881835938,789.7435913085938,795.3846435546875,800.2197875976562,887.2527465820312
2023-10-11 16:09:52.657553,795.3846435546875,794.981689453125,800.2197875976562,798.2051391601562,811.098876953125
2023-10-11 16:09:52.658964,792.967041015625,792.5640869140625,802.6373901367188,797.3992919921875,753.076904296875
2023-10-11 16:09:52.660680,788.5347900390625,784.5054931640625,800.6226806640625,799.010986328125,888.05859375
2023-10-11 16:09:52.662134,787.7289428710938,783.2966918945312,800.2197875976562,801.4285888671875,1059.7069091796875
2023-10-11 16:09:52.663596,788.937744140625,788.1318969726562,798.2051391601562,801.8314819335938,874.3589477539062
2023-10-11 16:09:52.665096,790.952392578125,786.1171875,797.8021850585938,797.3992919921875,668.4615478515625
2023-10-11 16:09:52.666581,797.3992919921875,782.893798828125,802.2344360351562,795.3846435546875,745.018310546875
2023-10-11 16:09:52.668118,794.5787353515625,783.2966918945312,802.2344360351562,792.5640869140625,822.3809814453125
2023-10-11 16:09:52.682174,782.087890625,782.087890625,803.040283203125,791.3552856445312,791.7582397460938
2023-10-11 16:09:52.683693,794.981689453125,784.5054931640625,806.2637329101562,801.4285888671875,728.09521484375
2023-10-11 16:09:52.685252,799.010986328125,783.2966918945312,806.2637329101562,805.8607788085938,710.3662719726562
2023-10-11 16:09:52.686554,794.1758422851562,786.5201416015625,805.4578857421875,800.6226806640625,745.4212646484375
2023-10-11 16:09:52.687799,796.996337890625,792.967041015625,806.2637329101562,795.3846435546875,770.4029541015625
2023-10-11 16:09:52.692721,791.3552856445312,792.967041015625,804.6520385742188,790.5494384765625,776.4468994140625
2023-10-11 16:09:52.693881,789.3406372070312,794.5787353515625,802.2344360351562,796.1904907226562,914.6520385742188
2023-10-11 16:09:52.695091,792.1611938476562,796.5933837890625,803.040283203125,801.025634765625,1015.3846435546875
2023-10-11 16:09:52.696413,796.996337890625,792.1611938476562,801.4285888671875,794.5787353515625,834.8717651367188
2023-10-11 16:09:52.697933,797.3992919921875,785.7142944335938,800.2197875976562,797.3992919921875,755.8974609375
2023-10-11 16:09:52.699060,797.3992919921875,784.1025390625,802.6373901367188,805.054931640625,860.2564086914062
2023-10-11 16:09:52.704668,798.2051391601562,788.1318969726562,802.6373901367188,805.054931640625,838.901123046875
2023-10-11 16:09:52.705935,795.7875366210938,788.5347900390625,798.6080322265625,796.996337890625,730.5128173828125
2023-10-11 16:09:52.746562,794.981689453125,785.3113403320312,794.1758422851562,789.3406372070312,732.12451171875
2023-10-11 16:09:52.747958,801.8314819335938,788.937744140625,792.967041015625,793.7728881835938,763.1502075195312
2023-10-11 16:09:52.749193,800.2197875976562,790.5494384765625,794.5787353515625,799.8168334960938,749.8534545898438
2023-10-11 16:09:52.750329,790.952392578125,789.3406372070312,800.6226806640625,801.025634765625,718.8278198242188
2023-10-11 16:09:52.751505,789.7435913085938,784.5054931640625,805.054931640625,799.4139404296875,693.8461303710938
2023-10-11 16:09:52.753408,793.7728881835938,780.879150390625,804.2490844726562,796.1904907226562,788.1318969726562
2023-10-11 16:09:52.754817,793.7728881835938,782.893798828125,803.040283203125,796.996337890625,871.5384521484375
2023-10-11 16:09:52.756265,792.967041015625,785.7142944335938,800.6226806640625,795.7875366210938,845.3479614257812
2023-10-11 16:09:52.757363,787.3259887695312,791.3552856445312,800.2197875976562,787.3259887695312,809.084228515625
2023-10-11 16:09:52.759001,781.2820434570312,789.3406372070312,803.4432373046875,785.7142944335938,931.97802734375
2023-10-11 16:09:52.760690,789.3406372070312,782.893798828125,805.8607788085938,788.1318969726562,834.06591796875
2023-10-11 16:09:52.762177,793.3699340820312,783.2966918945312,803.8461303710938,791.3552856445312,706.7399291992188
2023-10-11 16:09:52.781742,792.967041015625,785.3113403320312,804.2490844726562,790.1465454101562,780.4761962890625
2023-10-11 16:09:52.792310,794.5787353515625,783.6996459960938,800.6226806640625,788.5347900390625,782.087890625
2023-10-11 16:09:52.793875,786.923095703125,781.6849975585938,800.2197875976562,788.937744140625,697.87548828125
2023-10-11 16:09:52.795522,787.7289428710938,780.4761962890625,801.4285888671875,782.893798828125,691.025634765625
2023-10-11 16:09:52.797016,792.967041015625,782.087890625,799.010986328125,786.923095703125,745.018310546875
2023-10-11 16:09:52.798945,786.1171875,780.879150390625,799.8168334960938,793.7728881835938,817.1428833007812
2023-10-11 16:09:52.800888,785.3113403320312,780.879150390625,798.2051391601562,798.6080322265625,852.1978149414062
2023-10-11 16:09:52.802854,798.2051391601562,787.3259887695312,799.4139404296875,809.4871826171875,768.7911987304688
2023-10-11 16:09:52.804985,791.7582397460938,788.937744140625,805.054931640625,802.2344360351562,863.8828125
2023-10-11 16:09:52.807039,776.8497924804688,781.2820434570312,801.025634765625,786.1171875,955.3479614257812
2023-10-11 16:09:52.810145,782.087890625,776.8497924804688,804.2490844726562,790.5494384765625,793.7728881835938
2023-10-11 16:09:52.812355,781.6849975585938,775.2380981445312,805.8607788085938,794.1758422851562,742.6007080078125
2023-10-11 16:09:52.846794,775.2380981445312,776.0439453125,804.2490844726562,791.3552856445312,866.3003540039062
2023-10-11 16:09:52.848552,772.8204956054688,770.4029541015625,802.2344360351562,792.967041015625,803.040283203125
2023-10-11 16:09:52.850338,779.2673950195312,770.4029541015625,799.8168334960938,794.981689453125,716.4102783203125
2023-10-11 16:09:52.852382,786.1171875,774.029296875,800.2197875976562,791.7582397460938,761.94140625
2023-10-11 16:09:52.854203,788.937744140625,775.2380981445312,799.010986328125,796.996337890625,805.054931640625
2023-10-11 16:09:52.855892,783.2966918945312,778.8644409179688,801.8314819335938,800.2197875976562,836.08056640625
2023-10-11 16:09:52.857163,784.1025390625,780.4761962890625,802.2344360351562,796.996337890625,800.6226806640625
2023-10-11 16:09:52.858337,791.7582397460938,778.4615478515625,798.2051391601562,797.3992919921875,794.1758422851562
2023-10-11 16:09:52.859591,786.923095703125,776.0439453125,802.2344360351562,802.6373901367188,942.05126953125
2023-10-11 16:09:52.860827,786.5201416015625,776.4468994140625,803.040283203125,804.2490844726562,848.5714111328125
2023-10-11 16:09:52.861931,790.952392578125,778.05859375,801.4285888671875,802.6373901367188,706.3369750976562
2023-10-11 16:09:52.864018,790.5494384765625,778.4615478515625,803.8461303710938,799.010986328125,727.2893676757812
2023-10-11 16:09:52.885613,800.2197875976562,779.6703491210938,801.025634765625,799.8168334960938,753.076904296875
2023-10-11 16:09:52.886871,803.8461303710938,781.6849975585938,803.040283203125,801.8314819335938,806.6666870117188
2023-10-11 16:09:52.888535,796.996337890625,786.1171875,805.4578857421875,801.4285888671875,755.4945068359375
2023-10-11 16:09:52.900159,796.5933837890625,788.5347900390625,804.2490844726562,802.6373901367188,758.7179565429688
2023-10-11 16:09:52.901494,795.3846435546875,784.908447265625,810.2930297851562,814.7252807617188,801.025634765625
2023-10-11 16:09:52.902713,796.1904907226562,780.879150390625,805.4578857421875,806.2637329101562,826.4102783203125
2023-10-11 16:09:52.904375,799.8168334960938,780.0732421875,799.4139404296875,799.4139404296875,815.1282348632812
2023-10-11 16:09:52.905764,801.4285888671875,778.4615478515625,800.6226806640625,805.4578857421875,875.5677490234375
2023-10-11 16:09:52.908593,795.7875366210938,781.2820434570312,799.8168334960938,803.8461303710938,912.2344360351562
2023-10-11 16:09:52.909725,790.1465454101562,783.6996459960938,803.8461303710938,800.6226806640625,754.2857055664062
2023-10-11 16:09:52.910808,790.952392578125,782.4908447265625,801.4285888671875,788.1318969726562,726.886474609375
2023-10-11 16:09:52.912064,797.3992919921875,778.8644409179688,793.7728881835938,788.1318969726562,796.1904907226562
2023-10-11 16:09:52.913850,802.2344360351562,774.8351440429688,797.3992919921875,797.3992919921875,769.5970458984375
2023-10-11 16:09:52.914998,796.5933837890625,775.2380981445312,803.4432373046875,795.3846435546875,732.930419921875
2023-10-11 16:09:52.916195,794.981689453125,778.4615478515625,803.8461303710938,794.5787353515625,738.5714111328125
2023-10-11 16:09:52.917257,799.4139404296875,780.4761962890625,799.8168334960938,795.7875366210938,776.8497924804688
2023-10-11 16:09:52.918722,805.054931640625,782.087890625,799.4139404296875,797.8021850585938,821.1721801757812
2023-10-11 16:09:52.919763,801.025634765625,780.879150390625,803.4432373046875,800.6226806640625,801.025634765625
2023-10-11 16:09:52.922575,791.7582397460938,777.6557006835938,800.6226806640625,799.8168334960938,867.5091552734375
2023-10-11 16:09:52.923682,794.5787353515625,780.0732421875,795.7875366210938,804.6520385742188,953.7362670898438
2023-10-11 16:09:52.924744,798.2051391601562,781.2820434570312,794.981689453125,799.8168334960938,844.5421142578125
2023-10-11 16:09:52.925836,796.1904907226562,778.4615478515625,794.5787353515625,787.3259887695312,727.2893676757812
2023-10-11 16:09:52.927021,790.952392578125,780.0732421875,793.3699340820312,799.8168334960938,763.9560546875
2023-10-11 16:09:52.928095,783.2966918945312,780.4761962890625,794.5787353515625,803.040283203125,801.025634765625
2023-10-11 16:09:52.979898,783.2966918945312,779.6703491210938,793.3699340820312,794.1758422851562,738.974365234375
2023-10-11 16:09:52.981361,786.923095703125,780.879150390625,792.5640869140625,790.5494384765625,703.113525390625
2023-10-11 16:09:52.982506,787.7289428710938,782.087890625,794.981689453125,790.952392578125,787.7289428710938
2023-10-11 16:09:52.983942,786.5201416015625,783.6996459960938,798.6080322265625,800.6226806640625,782.4908447265625
2023-10-11 16:09:52.996588,780.4761962890625,785.3113403320312,800.2197875976562,794.1758422851562,737.7655639648438
2023-10-11 16:09:53.005204,779.6703491210938,784.1025390625,801.8314819335938,790.5494384765625,748.6447143554688
2023-10-11 16:09:53.006384,788.1318969726562,782.893798828125,803.8461303710938,808.2783813476562,896.923095703125
2023-10-11 16:09:53.007564,788.937744140625,780.0732421875,799.010986328125,807.87548828125,993.2234497070312
2023-10-11 16:09:53.008653,786.5201416015625,779.2673950195312,794.5787353515625,797.8021850585938,791.3552856445312
2023-10-11 16:09:53.009876,792.967041015625,780.879150390625,796.1904907226562,799.4139404296875,722.05126953125
2023-10-11 16:09:53.011128,792.1611938476562,784.5054931640625,796.5933837890625,807.069580078125,841.7216186523438
2023-10-11 16:09:53.013488,784.1025390625,787.3259887695312,793.7728881835938,802.6373901367188,812.7106323242188
2023-10-11 16:09:53.024003,796.5933837890625,790.5494384765625,796.1904907226562,793.7728881835938,697.87548828125
2023-10-11 16:09:53.025793,807.4725341796875,795.7875366210938,798.2051391601562,800.2197875976562,732.12451171875
2023-10-11 16:09:53.027328,796.5933837890625,790.952392578125,796.996337890625,801.025634765625,825.6043701171875
2023-10-11 16:09:53.029076,790.1465454101562,785.7142944335938,799.010986328125,792.1611938476562,784.908447265625
2023-10-11 16:09:53.030598,790.952392578125,784.1025390625,797.8021850585938,790.5494384765625,691.025634765625
2023-10-11 16:09:53.032352,790.1465454101562,783.2966918945312,796.996337890625,796.996337890625,743.003662109375
2023-10-11 16:09:53.034039,788.5347900390625,782.087890625,799.4139404296875,806.2637329101562,1000.0732421875
2023-10-11 16:09:53.035886,786.5201416015625,786.923095703125,799.4139404296875,801.8314819335938,934.3956298828125
2023-10-11 16:09:53.037448,789.3406372070312,792.5640869140625,799.010986328125,793.3699340820312,693.040283203125
2023-10-11 16:09:53.039236,796.996337890625,786.923095703125,798.2051391601562,791.7582397460938,765.970703125
2023-10-11 16:09:53.041003,802.2344360351562,787.7289428710938,798.6080322265625,793.7728881835938,875.1648559570312
2023-10-11 16:09:53.042745,809.4871826171875,789.7435913085938,795.7875366210938,797.8021850585938,788.5347900390625
2023-10-11 16:09:53.081574,811.098876953125,790.1465454101562,797.3992919921875,806.2637329101562,732.5274658203125
2023-10-11 16:09:53.083261,810.2930297851562,799.8168334960938,803.4432373046875,815.5311279296875,743.003662109375
2023-10-11 16:09:53.085114,807.87548828125,801.025634765625,800.2197875976562,805.4578857421875,749.047607421875
2023-10-11 16:09:53.087651,802.6373901367188,796.1904907226562,793.7728881835938,783.6996459960938,734.945068359375
2023-10-11 16:09:53.089268,806.6666870117188,795.7875366210938,791.7582397460938,791.3552856445312,739.7802124023438
2023-10-11 16:09:53.090810,802.6373901367188,792.967041015625,797.8021850585938,811.90478515625,878.7911987304688
2023-10-11 16:09:53.092447,787.3259887695312,790.5494384765625,801.4285888671875,807.069580078125,922.3076782226562
2023-10-11 16:09:53.101448,790.5494384765625,786.923095703125,794.5787353515625,791.3552856445312,769.5970458984375
2023-10-11 16:09:53.102991,804.2490844726562,781.2820434570312,790.952392578125,786.923095703125,713.99267578125
2023-10-11 16:09:53.104365,807.4725341796875,782.4908447265625,790.952392578125,784.908447265625,841.7216186523438
2023-10-11 16:09:53.105889,806.2637329101562,786.923095703125,793.3699340820312,783.6996459960938,850.1831665039062
2023-10-11 16:09:53.107088,801.025634765625,790.1465454101562,793.7728881835938,795.7875366210938,713.1868286132812
2023-10-11 16:09:53.118389,790.952392578125,790.5494384765625,791.7582397460938,807.4725341796875,723.2600708007812
2023-10-11 16:09:53.119654,790.952392578125,785.3113403320312,794.1758422851562,801.8314819335938,820.3662719726562
2023-10-11 16:09:53.121083,801.8314819335938,779.6703491210938,792.1611938476562,794.1758422851562,783.6996459960938
2023-10-11 16:09:53.122341,799.010986328125,777.6557006835938,788.5347900390625,792.5640869140625,718.8278198242188
2023-10-11 16:09:53.123713,794.5787353515625,786.5201416015625,788.937744140625,790.952392578125,739.7802124023438
2023-10-11 16:09:53.125055,794.5787353515625,787.3259887695312,790.1465454101562,782.4908447265625,844.1392211914062
2023-10-11 16:09:53.126386,797.3992919921875,782.087890625,791.3552856445312,789.7435913085938,866.7033081054688
2023-10-11 16:09:53.127770,804.6520385742188,784.908447265625,794.1758422851562,799.010986328125,783.6996459960938
2023-10-11 16:09:53.129216,805.054931640625,786.5201416015625,801.025634765625,803.4432373046875,816.3369750976562
2023-10-11 16:09:53.130443,796.1904907226562,783.6996459960938,796.5933837890625,801.4285888671875,1003.2966918945312
2023-10-11 16:09:53.131935,788.937744140625,782.4908447265625,790.1465454101562,790.952392578125,867.5091552734375
2023-10-11 16:09:53.133398,795.7875366210938,782.893798828125,790.1465454101562,796.996337890625,687.3992919921875
2023-10-11 16:09:53.146051,793.7728881835938,780.879150390625,790.5494384765625,793.3699340820312,777.2527465820312
2023-10-11 16:09:53.147896,778.05859375,782.087890625,793.7728881835938,776.4468994140625,786.923095703125
2023-10-11 16:09:53.149258,776.0439453125,782.4908447265625,796.1904907226562,776.4468994140625,754.2857055664062
2023-10-11 16:09:53.150901,774.8351440429688,782.4908447265625,792.967041015625,774.8351440429688,791.3552856445312
2023-10-11 16:09:53.152386,769.1941528320312,784.1025390625,789.7435913085938,764.7619018554688,807.4725341796875
2023-10-11 16:09:53.153933,763.5531005859375,779.6703491210938,791.3552856445312,760.3296508789062,880.8058471679688
2023-10-11 16:09:53.155496,764.7619018554688,780.4761962890625,799.010986328125,772.0146484375,852.6007080078125
2023-10-11 16:09:53.156936,762.3442993164062,778.8644409179688,796.5933837890625,772.0146484375,717.2161254882812
2023-10-11 16:09:53.158783,755.4945068359375,770.0,789.3406372070312,763.9560546875,820.3662719726562
2023-10-11 16:09:53.168233,754.6886596679688,770.8058471679688,788.1318969726562,761.1355590820312,913.8461303710938
2023-10-11 16:09:53.169428,763.1502075195312,782.4908447265625,792.1611938476562,765.5677490234375,737.7655639648438
2023-10-11 16:09:53.170595,776.0439453125,790.952392578125,796.5933837890625,774.029296875,703.91943359375
2023-10-11 16:09:53.212574,776.0439453125,789.3406372070312,796.1904907226562,784.908447265625,757.912109375
2023-10-11 16:09:53.213820,775.6410522460938,786.1171875,797.3992919921875,782.087890625,722.05126953125
2023-10-11 16:09:53.215001,780.879150390625,788.937744140625,796.996337890625,767.9853515625,692.2344360351562
2023-10-11 16:09:53.216453,784.5054931640625,790.952392578125,798.2051391601562,771.2088012695312,724.06591796875
2023-10-11 16:09:53.218151,794.1758422851562,789.7435913085938,798.2051391601562,786.923095703125,783.6996459960938
2023-10-11 16:09:53.219901,796.1904907226562,789.3406372070312,794.1758422851562,790.952392578125,842.930419921875
2023-10-11 16:09:53.221781,789.3406372070312,785.7142944335938,795.3846435546875,787.7289428710938,839.7069702148438
2023-10-11 16:09:53.225181,789.7435913085938,785.7142944335938,796.5933837890625,792.967041015625,849.3773193359375
2023-10-11 16:09:53.226432,796.1904907226562,789.7435913085938,794.1758422851562,796.5933837890625,989.1941528320312
2023-10-11 16:09:53.227712,797.8021850585938,788.937744140625,794.1758422851562,792.5640869140625,914.2490844726562
2023-10-11 16:09:53.229090,799.4139404296875,789.7435913085938,791.7582397460938,792.5640869140625,755.4945068359375
2023-10-11 16:09:53.231274,806.2637329101562,792.5640869140625,794.1758422851562,785.3113403320312,756.7033081054688
2023-10-11 16:09:53.247047,809.89013671875,795.3846435546875,798.2051391601562,783.2966918945312,822.7838745117188
2023-10-11 16:09:53.248510,817.1428833007812,793.3699340820312,795.7875366210938,786.5201416015625,737.3626098632812
2023-10-11 16:09:53.249777,829.6337280273438,790.952392578125,795.3846435546875,788.937744140625,689.010986328125
2023-10-11 16:09:53.251061,823.5897216796875,796.1904907226562,797.3992919921875,793.7728881835938,738.5714111328125
2023-10-11 16:09:53.252374,803.8461303710938,794.5787353515625,790.5494384765625,788.937744140625,744.2124633789062
2023-10-11 16:09:53.253676,795.7875366210938,793.3699340820312,790.5494384765625,790.5494384765625,804.6520385742188
2023-10-11 16:09:53.256512,795.7875366210938,792.5640869140625,793.7728881835938,800.2197875976562,853.8095092773438
2023-10-11 16:09:53.257812,795.7875366210938,788.1318969726562,792.5640869140625,807.87548828125,890.879150390625
2023-10-11 16:09:53.259259,794.1758422851562,788.937744140625,796.996337890625,816.7399291992188,970.6593627929688
2023-10-11 16:09:53.260750,790.952392578125,789.7435913085938,794.981689453125,820.7692260742188,798.6080322265625
2023-10-11 16:09:53.262073,789.7435913085938,788.937744140625,797.3992919921875,820.3662719726562,688.2051391601562
2023-10-11 16:09:53.271317,798.6080322265625,792.5640869140625,802.2344360351562,817.5457763671875,799.4139404296875
2023-10-11 16:09:53.282876,803.8461303710938,795.7875366210938,796.1904907226562,817.1428833007812,779.2673950195312
2023-10-11 16:09:53.283818,803.4432373046875,796.996337890625,792.967041015625,818.7545776367188,692.6373901367188
2023-10-11 16:09:53.285050,798.6080322265625,797.8021850585938,796.5933837890625,813.113525390625,740.1831665039062
2023-10-11 16:09:53.287419,789.3406372070312,790.5494384765625,796.1904907226562,801.025634765625,786.923095703125
2023-10-11 16:09:53.288766,796.5933837890625,785.3113403320312,796.1904907226562,792.5640869140625,749.047607421875
2023-10-11 16:09:53.290302,801.8314819335938,788.937744140625,796.5933837890625,790.1465454101562,825.2014770507812
2023-10-11 16:09:53.291499,801.4285888671875,789.3406372070312,796.1904907226562,799.4139404296875,918.2783813476562
2023-10-11 16:09:53.292828,797.8021850585938,786.923095703125,796.996337890625,804.2490844726562,1004.1025390625
2023-10-11 16:09:53.293922,794.5787353515625,788.937744140625,801.4285888671875,800.2197875976562,866.3003540039062
2023-10-11 16:09:53.295055,803.4432373046875,791.7582397460938,799.8168334960938,790.952392578125,702.7106323242188
2023-10-11 16:09:53.296330,804.2490844726562,790.1465454101562,794.1758422851562,786.1171875,740.5860595703125
2023-10-11 16:09:53.297554,794.1758422851562,786.5201416015625,794.981689453125,796.1904907226562,848.974365234375
2023-10-11 16:09:53.348694,792.1611938476562,783.2966918945312,793.7728881835938,791.7582397460938,790.5494384765625
2023-10-11 16:09:53.350021,788.1318969726562,782.893798828125,793.3699340820312,782.4908447265625,702.7106323242188
2023-10-11 16:09:53.351228,786.923095703125,785.3113403320312,794.981689453125,788.1318969726562,794.5787353515625
2023-10-11 16:09:53.352445,794.981689453125,784.5054931640625,797.8021850585938,798.2051391601562,840.915771484375
2023-10-11 16:09:53.353616,803.8461303710938,786.5201416015625,796.996337890625,793.3699340820312,759.120849609375
2023-10-11 16:09:53.354827,801.8314819335938,790.5494384765625,791.3552856445312,793.7728881835938,778.4615478515625
2023-10-11 16:09:53.356650,796.996337890625,792.1611938476562,794.5787353515625,800.2197875976562,952.5274658203125
2023-10-11 16:09:53.358357,801.4285888671875,792.967041015625,799.010986328125,796.5933837890625,997.6557006835938
2023-10-11 16:09:53.359829,811.5018310546875,794.981689453125,796.1904907226562,798.2051391601562,783.2966918945312
2023-10-11 16:09:53.361580,813.5164794921875,795.3846435546875,796.5933837890625,801.4285888671875,746.6300659179688
2023-10-11 16:09:53.363454,801.4285888671875,790.952392578125,794.5787353515625,799.010986328125,794.981689453125
2023-10-11 16:09:53.364751,796.5933837890625,790.952392578125,794.1758422851562,806.2637329101562,736.5567626953125
2023-10-11 16:09:53.416973,796.996337890625,792.5640869140625,798.6080322265625,805.054931640625,686.996337890625
2023-10-11 16:09:53.427741,802.6373901367188,792.1611938476562,798.6080322265625,795.7875366210938,736.959716796875
2023-10-11 16:09:53.429182,810.2930297851562,794.5787353515625,797.8021850585938,802.6373901367188,872.3442993164062
2023-10-11 16:09:53.430592,805.054931640625,793.3699340820312,797.8021850585938,800.6226806640625,824.7985229492188
2023-10-11 16:09:53.431918,803.8461303710938,792.1611938476562,796.1904907226562,800.2197875976562,740.5860595703125
2023-10-11 16:09:53.433352,807.069580078125,795.3846435546875,796.1904907226562,802.6373901367188,860.2564086914062
2023-10-11 16:09:53.434423,803.8461303710938,792.5640869140625,794.1758422851562,805.054931640625,1075.82421875
2023-10-11 16:09:53.436421,805.8607788085938,795.7875366210938,794.5787353515625,808.2783813476562,908.6080322265625
2023-10-11 16:09:53.438071,805.054931640625,795.7875366210938,794.1758422851562,803.040283203125,701.90478515625
2023-10-11 16:09:53.440665,799.010986328125,790.5494384765625,789.7435913085938,794.5787353515625,701.90478515625
2023-10-11 16:09:53.442133,797.8021850585938,792.5640869140625,788.5347900390625,788.937744140625,707.5457763671875
2023-10-11 16:09:53.443113,807.4725341796875,796.1904907226562,792.5640869140625,793.3699340820312,693.040283203125
2023-10-11 16:09:53.445846,805.8607788085938,790.952392578125,796.1904907226562,799.010986328125,703.5164794921875
2023-10-11 16:09:53.447418,799.8168334960938,788.937744140625,802.6373901367188,798.6080322265625,749.8534545898438
2023-10-11 16:09:53.448665,803.040283203125,792.967041015625,804.2490844726562,799.010986328125,753.4798583984375
2023-10-11 16:09:53.449969,799.8168334960938,793.3699340820312,799.010986328125,795.3846435546875,742.6007080078125
2023-10-11 16:09:53.451049,798.2051391601562,791.7582397460938,799.4139404296875,792.1611938476562,716.8131713867188
2023-10-11 16:09:53.452341,804.2490844726562,790.5494384765625,803.040283203125,795.3846435546875,909.010986328125
2023-10-11 16:09:53.453216,801.4285888671875,790.952392578125,801.025634765625,799.010986328125,1023.8461303710938
2023-10-11 16:09:53.454174,789.7435913085938,791.3552856445312,798.2051391601562,798.2051391601562,797.3992919921875
2023-10-11 16:09:53.455107,790.1465454101562,790.5494384765625,794.5787353515625,792.1611938476562,680.952392578125
2023-10-11 16:09:53.455953,797.8021850585938,790.1465454101562,796.996337890625,795.3846435546875,843.3333129882812
2023-10-11 16:09:53.456916,792.967041015625,788.1318969726562,797.3992919921875,796.5933837890625,918.6813354492188
2023-10-11 16:09:53.457658,787.7289428710938,783.2966918945312,797.3992919921875,793.7728881835938,761.94140625
2023-10-11 16:09:53.480478,788.1318969726562,784.5054931640625,803.4432373046875,798.6080322265625,733.7362670898438
2023-10-11 16:09:53.481764,786.923095703125,786.1171875,803.4432373046875,800.2197875976562,781.6849975585938
2023-10-11 16:09:53.483155,784.908447265625,784.1025390625,803.8461303710938,805.8607788085938,754.2857055664062
2023-10-11 16:09:53.495172,792.967041015625,783.6996459960938,803.4432373046875,809.89013671875,715.2014770507812
2023-10-11 16:09:53.496874,801.025634765625,784.1025390625,799.4139404296875,799.4139404296875,778.4615478515625
2023-10-11 16:09:53.499161,803.8461303710938,784.1025390625,799.4139404296875,806.2637329101562,896.5201416015625
2023-10-11 16:09:53.500704,805.054931640625,790.1465454101562,801.8314819335938,809.4871826171875,805.4578857421875
2023-10-11 16:09:53.501964,803.8461303710938,794.981689453125,801.025634765625,791.3552856445312,766.3735961914062
2023-10-11 16:09:53.505300,811.098876953125,794.1758422851562,796.5933837890625,798.6080322265625,852.6007080078125
2023-10-11 16:09:53.507533,811.5018310546875,792.5640869140625,794.1758422851562,817.1428833007812,985.970703125
2023-10-11 16:09:53.509316,807.4725341796875,792.967041015625,792.967041015625,813.113525390625,859.8534545898438
2023-10-11 16:09:53.511280,811.90478515625,797.3992919921875,794.1758422851562,805.054931640625,674.5054931640625
2023-10-11 16:09:53.546992,817.5457763671875,801.025634765625,793.3699340820312,813.5164794921875,724.8717651367188
2023-10-11 16:09:53.548469,828.4249267578125,800.2197875976562,788.5347900390625,824.3956298828125,774.8351440429688
2023-10-11 16:09:53.550883,834.06591796875,800.2197875976562,787.3259887695312,833.6630249023438,757.5091552734375
2023-10-11 16:09:53.552483,829.6337280273438,801.8314819335938,790.1465454101562,834.8717651367188,757.912109375
2023-10-11 16:09:53.553781,827.6190185546875,805.8607788085938,790.5494384765625,822.7838745117188,772.0146484375
2023-10-11 16:09:53.555376,829.6337280273438,802.6373901367188,791.7582397460938,813.5164794921875,811.098876953125
2023-10-11 16:09:53.557424,822.7838745117188,796.1904907226562,793.3699340820312,814.7252807617188,887.2527465820312
2023-10-11 16:09:53.558259,826.00732421875,796.5933837890625,796.1904907226562,824.7985229492188,790.952392578125
2023-10-11 16:09:53.559037,827.6190185546875,796.5933837890625,797.3992919921875,826.4102783203125,807.87548828125
2023-10-11 16:09:53.560245,816.7399291992188,798.2051391601562,797.8021850585938,828.8278198242188,881.6116943359375
2023-10-11 16:09:53.561331,817.5457763671875,798.6080322265625,802.6373901367188,832.05126953125,738.5714111328125
2023-10-11 16:09:53.562332,821.5750732421875,796.996337890625,797.3992919921875,833.6630249023438,697.069580078125
2023-10-11 16:09:53.583400,821.1721801757812,798.2051391601562,798.2051391601562,831.2454223632812,784.1025390625
2023-10-11 16:09:53.584505,817.5457763671875,797.8021850585938,801.4285888671875,804.6520385742188,769.1941528320312
2023-10-11 16:09:53.585519,814.7252807617188,799.4139404296875,796.5933837890625,804.2490844726562,707.1428833007812
2023-10-11 16:09:53.586577,809.084228515625,799.010986328125,792.5640869140625,811.90478515625,723.6630249023438
2023-10-11 16:09:53.587554,807.069580078125,799.010986328125,793.7728881835938,805.054931640625,744.2124633789062
2023-10-11 16:09:53.594181,810.2930297851562,798.2051391601562,796.996337890625,803.4432373046875,846.959716796875
2023-10-11 16:09:53.595249,806.6666870117188,795.7875366210938,798.6080322265625,794.1758422851562,846.5567626953125
2023-10-11 16:09:53.596590,799.8168334960938,794.1758422851562,801.4285888671875,792.5640869140625,785.3113403320312
2023-10-11 16:09:53.597465,804.6520385742188,795.3846435546875,801.025634765625,803.4432373046875,951.3186645507812
2023-10-11 16:09:53.598286,813.113525390625,794.5787353515625,798.6080322265625,812.3076782226562,880.8058471679688
2023-10-11 16:09:53.599166,808.2783813476562,792.967041015625,801.025634765625,808.2783813476562,763.5531005859375
2023-10-11 16:09:53.600027,805.054931640625,792.1611938476562,801.8314819335938,804.6520385742188,796.996337890625
2023-10-11 16:09:53.649118,802.2344360351562,794.1758422851562,805.4578857421875,807.87548828125,790.1465454101562
2023-10-11 16:09:53.651819,802.2344360351562,795.7875366210938,805.8607788085938,813.91943359375,803.040283203125
2023-10-11 16:09:53.653403,809.084228515625,796.1904907226562,800.6226806640625,809.084228515625,759.5238037109375
2023-10-11 16:09:53.655000,807.4725341796875,792.5640869140625,796.5933837890625,803.8461303710938,796.5933837890625
2023-10-11 16:09:53.657656,805.054931640625,790.1465454101562,798.6080322265625,805.8607788085938,842.930419921875
2023-10-11 16:09:53.659466,798.6080322265625,788.937744140625,802.2344360351562,806.6666870117188,785.7142944335938
2023-10-11 16:09:53.660725,796.5933837890625,788.5347900390625,800.6226806640625,798.6080322265625,724.8717651367188
2023-10-11 16:09:53.661836,805.4578857421875,794.981689453125,803.040283203125,794.5787353515625,838.4981689453125
2023-10-11 16:09:53.663895,805.8607788085938,797.8021850585938,809.4871826171875,814.3223266601562,954.945068359375
2023-10-11 16:09:53.667363,797.8021850585938,794.981689453125,808.2783813476562,819.1575317382812,801.4285888671875
2023-10-11 16:09:53.669002,796.996337890625,794.5787353515625,805.054931640625,813.91943359375,737.7655639648438
2023-10-11 16:09:53.670795,798.2051391601562,792.5640869140625,803.040283203125,817.1428833007812,797.3992919921875
2023-10-11 16:09:53.685373,793.7728881835938,790.1465454101562,800.6226806640625,808.6813354492188,772.8204956054688
2023-10-11 16:09:53.686216,801.8314819335938,793.3699340820312,799.4139404296875,797.8021850585938,765.970703125
2023-10-11 16:09:53.687254,805.8607788085938,793.7728881835938,798.2051391601562,797.8021850585938,792.1611938476562
2023-10-11 16:09:53.688218,793.3699340820312,792.1611938476562,795.7875366210938,797.3992919921875,817.1428833007812
2023-10-11 16:09:53.689501,788.937744140625,792.1611938476562,795.3846435546875,794.5787353515625,793.7728881835938
2023-10-11 16:09:53.691476,790.1465454101562,793.3699340820312,796.996337890625,793.7728881835938,776.4468994140625
2023-10-11 16:09:53.692818,797.3992919921875,794.981689453125,793.7728881835938,789.3406372070312,881.2088012695312
2023-10-11 16:09:53.702478,795.7875366210938,794.1758422851562,792.5640869140625,784.1025390625,1012.1611938476562
2023-10-11 16:09:53.704685,791.7582397460938,793.3699340820312,793.3699340820312,784.5054931640625,878.3883056640625
2023-10-11 16:09:53.706175,799.8168334960938,796.1904907226562,796.1904907226562,781.2820434570312,705.93408203125
2023-10-11 16:09:53.707862,800.6226806640625,796.1904907226562,796.996337890625,781.2820434570312,745.018310546875
2023-10-11 16:09:53.709667,796.5933837890625,794.1758422851562,797.3992919921875,783.6996459960938,808.6813354492188
2023-10-11 16:09:53.714464,796.1904907226562,795.3846435546875,797.8021850585938,782.4908447265625,747.032958984375
2023-10-11 16:09:53.716062,788.1318969726562,790.952392578125,794.5787353515625,783.2966918945312,693.4432373046875
2023-10-11 16:09:53.718128,786.5201416015625,786.1171875,793.7728881835938,782.4908447265625,736.959716796875
2023-10-11 16:09:53.719849,788.937744140625,788.5347900390625,796.1904907226562,780.879150390625,738.1685180664062
2023-10-11 16:09:53.722371,788.5347900390625,790.1465454101562,797.8021850585938,785.7142944335938,742.1978149414062
2023-10-11 16:09:53.723850,783.6996459960938,788.937744140625,796.996337890625,788.1318969726562,831.2454223632812
2023-10-11 16:09:53.725696,776.8497924804688,789.7435913085938,796.1904907226562,779.2673950195312,994.8351440429688
2023-10-11 16:09:53.728912,778.05859375,790.5494384765625,797.8021850585938,784.1025390625,1057.6922607421875
2023-10-11 16:09:53.729825,777.2527465820312,788.1318969726562,798.2051391601562,781.6849975585938,780.879150390625
2023-10-11 16:09:53.730684,776.4468994140625,786.923095703125,797.8021850585938,768.3883056640625,697.87548828125
2023-10-11 16:09:53.731510,782.893798828125,790.5494384765625,800.2197875976562,775.6410522460938,835.2747192382812
2023-10-11 16:09:53.735467,785.3113403320312,794.1758422851562,800.6226806640625,786.5201416015625,786.5201416015625
2023-10-11 16:09:53.780586,786.5201416015625,791.7582397460938,797.3992919921875,786.923095703125,682.967041015625
2023-10-11 16:09:53.782406,790.5494384765625,788.937744140625,795.3846435546875,786.923095703125,710.3662719726562
2023-10-11 16:09:53.783788,790.5494384765625,787.3259887695312,797.3992919921875,785.3113403320312,769.1941528320312
2023-10-11 16:09:53.785351,788.1318969726562,790.1465454101562,799.8168334960938,782.893798828125,779.2673950195312
2023-10-11 16:09:53.786926,778.4615478515625,786.1171875,799.4139404296875,782.4908447265625,697.87548828125
2023-10-11 16:09:53.787986,774.029296875,782.4908447265625,799.8168334960938,777.6557006835938,780.0732421875
2023-10-11 16:09:53.789565,783.6996459960938,789.7435913085938,796.996337890625,780.4761962890625,1023.4432373046875
2023-10-11 16:09:53.792298,788.937744140625,791.3552856445312,792.5640869140625,776.0439453125,882.8204956054688
2023-10-11 16:09:53.793716,793.7728881835938,788.5347900390625,794.1758422851562,775.6410522460938,731.3186645507812
2023-10-11 16:09:53.800854,795.7875366210938,788.5347900390625,797.8021850585938,786.1171875,864.2857055664062
2023-10-11 16:09:53.801900,779.6703491210938,790.5494384765625,799.010986328125,786.923095703125,927.1428833007812
2023-10-11 16:09:53.803759,773.2234497070312,789.3406372070312,796.996337890625,786.5201416015625,744.6153564453125
2023-10-11 16:09:53.813654,788.937744140625,787.3259887695312,797.3992919921875,788.5347900390625,667.6557006835938
2023-10-11 16:09:53.815331,797.3992919921875,788.5347900390625,796.996337890625,783.2966918945312,743.8095092773438
2023-10-11 16:09:53.818123,792.1611938476562,793.3699340820312,796.5933837890625,782.893798828125,783.2966918945312
2023-10-11 16:09:53.820566,783.6996459960938,793.3699340820312,797.8021850585938,780.4761962890625,750.6593627929688
2023-10-11 16:09:53.822009,781.2820434570312,789.7435913085938,796.996337890625,783.2966918945312,704.3223266601562
2023-10-11 16:09:53.823757,785.7142944335938,786.1171875,794.1758422851562,786.1171875,830.4395751953125
2023-10-11 16:09:53.825340,795.7875366210938,792.1611938476562,796.1904907226562,792.967041015625,937.6190185546875
2023-10-11 16:09:53.826478,796.5933837890625,797.8021850585938,801.4285888671875,805.054931640625,800.6226806640625
2023-10-11 16:09:53.827341,792.1611938476562,796.1904907226562,802.6373901367188,798.2051391601562,709.5604248046875
2023-10-11 16:09:53.828677,793.7728881835938,793.7728881835938,801.4285888671875,795.7875366210938,816.3369750976562
2023-10-11 16:09:53.829730,794.1758422851562,791.7582397460938,802.2344360351562,798.6080322265625,822.3809814453125
2023-10-11 16:09:53.832193,789.3406372070312,789.3406372070312,802.2344360351562,789.7435913085938,727.6923217773438
2023-10-11 16:09:53.864848,788.1318969726562,790.952392578125,803.4432373046875,790.1465454101562,836.886474609375
2023-10-11 16:09:53.866288,793.3699340820312,793.3699340820312,801.4285888671875,801.025634765625,933.1868286132812
2023-10-11 16:09:53.867903,792.1611938476562,792.967041015625,800.6226806640625,800.6226806640625,826.4102783203125
2023-10-11 16:09:53.869391,784.908447265625,792.967041015625,801.025634765625,792.5640869140625,744.2124633789062
2023-10-11 16:09:53.870833,789.3406372070312,793.7728881835938,797.8021850585938,787.7289428710938,747.4359130859375
2023-10-11 16:09:53.872633,794.981689453125,790.5494384765625,796.1904907226562,781.2820434570312,867.5091552734375
2023-10-11 16:09:53.874458,793.3699340820312,785.7142944335938,798.6080322265625,786.923095703125,913.8461303710938
2023-10-11 16:09:53.875837,789.3406372070312,787.7289428710938,802.6373901367188,797.3992919921875,760.3296508789062
2023-10-11 16:09:53.877833,788.937744140625,790.1465454101562,801.4285888671875,796.1904907226562,732.12451171875
2023-10-11 16:09:53.879397,806.6666870117188,792.967041015625,798.2051391601562,804.2490844726562,948.901123046875
2023-10-11 16:09:53.880889,818.7545776367188,795.7875366210938,800.2197875976562,819.5604248046875,871.5384521484375
2023-10-11 16:09:53.893871,799.010986328125,788.5347900390625,809.084228515625,815.93408203125,690.6226806640625
2023-10-11 16:09:53.896377,784.5054931640625,784.5054931640625,808.2783813476562,802.2344360351562,714.3956298828125
2023-10-11 16:09:53.897831,797.3992919921875,785.7142944335938,800.2197875976562,798.2051391601562,716.8131713867188
2023-10-11 16:09:53.899113,804.2490844726562,782.087890625,803.040283203125,805.4578857421875,744.6153564453125
2023-10-11 16:09:53.900654,799.4139404296875,779.2673950195312,811.5018310546875,802.6373901367188,796.996337890625
2023-10-11 16:09:53.902126,791.7582397460938,776.4468994140625,814.7252807617188,798.6080322265625,812.3076782226562
2023-10-11 16:09:53.905436,787.3259887695312,777.2527465820312,812.7106323242188,807.87548828125,863.8828125
2023-10-11 16:09:53.906913,786.923095703125,776.8497924804688,813.5164794921875,804.2490844726562,855.8241577148438
2023-10-11 16:09:53.908301,801.4285888671875,772.0146484375,814.3223266601562,807.4725341796875,768.7911987304688
2023-10-11 16:09:53.909553,803.4432373046875,772.0146484375,814.3223266601562,816.3369750976562,865.8974609375
2023-10-11 16:09:53.910999,790.5494384765625,774.029296875,812.3076782226562,817.1428833007812,932.7838745117188
2023-10-11 16:09:53.913459,793.3699340820312,777.2527465820312,809.89013671875,810.2930297851562,740.5860595703125
2023-10-11 16:09:53.915094,802.6373901367188,778.4615478515625,810.2930297851562,805.054931640625,696.2637329101562
2023-10-11 16:09:53.963580,796.5933837890625,777.6557006835938,812.3076782226562,806.2637329101562,756.7033081054688
2023-10-11 16:09:53.965125,794.1758422851562,780.879150390625,808.6813354492188,803.8461303710938,754.6886596679688
2023-10-11 16:09:53.966367,800.6226806640625,780.879150390625,803.4432373046875,792.967041015625,728.901123046875
2023-10-11 16:09:53.968279,801.025634765625,782.087890625,806.2637329101562,795.7875366210938,710.3662719726562
2023-10-11 16:09:53.969732,797.3992919921875,784.908447265625,809.084228515625,805.4578857421875,728.901123046875
2023-10-11 16:09:53.971402,794.5787353515625,781.2820434570312,805.4578857421875,807.87548828125,812.7106323242188
2023-10-11 16:09:53.972956,794.5787353515625,780.0732421875,804.6520385742188,811.90478515625,830.4395751953125
2023-10-11 16:09:53.974010,795.7875366210938,782.893798828125,810.6959838867188,830.4395751953125,841.7216186523438
2023-10-11 16:09:53.975713,794.981689453125,784.5054931640625,808.2783813476562,838.4981689453125,968.6447143554688
2023-10-11 16:09:53.977289,793.7728881835938,788.1318969726562,802.6373901367188,815.1282348632812,848.5714111328125
2023-10-11 16:09:53.978649,803.4432373046875,792.5640869140625,802.2344360351562,809.084228515625,706.3369750976562
2023-10-11 16:09:53.980621,811.5018310546875,797.3992919921875,804.2490844726562,817.5457763671875,760.7326049804688
2023-10-11 16:09:53.996513,811.5018310546875,799.010986328125,802.6373901367188,809.084228515625,830.8424682617188
2023-10-11 16:09:54.002623,808.6813354492188,798.6080322265625,800.6226806640625,811.098876953125,758.7179565429688
2023-10-11 16:09:54.003920,804.6520385742188,798.6080322265625,802.2344360351562,817.5457763671875,699.89013671875
2023-10-11 16:09:54.005063,808.6813354492188,798.6080322265625,800.2197875976562,811.90478515625,740.5860595703125
2023-10-11 16:09:54.006966,815.1282348632812,799.010986328125,801.025634765625,809.89013671875,782.893798828125
2023-10-11 16:09:54.008692,810.2930297851562,796.1904907226562,801.025634765625,810.6959838867188,811.90478515625
2023-10-11 16:09:54.010374,807.87548828125,792.5640869140625,797.8021850585938,807.4725341796875,822.3809814453125
2023-10-11 16:09:54.011817,808.6813354492188,794.5787353515625,796.1904907226562,807.4725341796875,869.5238037109375
2023-10-11 16:09:54.013315,812.7106323242188,797.3992919921875,795.7875366210938,819.96337890625,940.03662109375
2023-10-11 16:09:54.015218,816.3369750976562,796.5933837890625,795.7875366210938,821.1721801757812,823.5897216796875
2023-10-11 16:09:54.018569,819.1575317382812,799.010986328125,795.3846435546875,808.6813354492188,746.2271118164062
2023-10-11 16:09:54.021180,817.5457763671875,802.2344360351562,794.5787353515625,798.2051391601562,844.945068359375
2023-10-11 16:09:54.034571,809.89013671875,799.4139404296875,796.1904907226562,801.025634765625,792.5640869140625
2023-10-11 16:09:54.035741,819.1575317382812,799.010986328125,801.4285888671875,810.6959838867188,682.967041015625
2023-10-11 16:09:54.036923,823.5897216796875,794.1758422851562,800.2197875976562,803.8461303710938,739.7802124023438
2023-10-11 16:09:54.038508,813.91943359375,789.3406372070312,797.3992919921875,803.8461303710938,793.3699340820312
2023-10-11 16:09:54.040254,807.4725341796875,790.5494384765625,805.054931640625,826.4102783203125,767.1795043945312
2023-10-11 16:09:54.042520,795.7875366210938,790.5494384765625,807.87548828125,824.3956298828125,814.3223266601562
2023-10-11 16:09:54.043598,792.5640869140625,792.5640869140625,807.4725341796875,812.3076782226562,886.0439453125
2023-10-11 16:09:54.045244,803.040283203125,794.1758422851562,811.90478515625,823.1868286132812,986.7765502929688
2023-10-11 16:09:54.047470,796.1904907226562,791.3552856445312,813.91943359375,827.6190185546875,877.1795043945312
2023-10-11 16:09:54.048667,796.996337890625,792.1611938476562,814.3223266601562,828.4249267578125,715.2014770507812
2023-10-11 16:09:54.049787,803.8461303710938,792.5640869140625,811.5018310546875,827.6190185546875,731.3186645507812
2023-10-11 16:09:54.051153,802.2344360351562,791.3552856445312,807.87548828125,816.7399291992188,821.97802734375
2023-10-11 16:09:54.082250,814.3223266601562,793.7728881835938,807.4725341796875,819.1575317382812,788.937744140625
2023-10-11 16:09:54.084500,821.5750732421875,794.5787353515625,806.2637329101562,821.97802734375,744.6153564453125
2023-10-11 16:09:54.086111,809.4871826171875,788.937744140625,807.069580078125,812.7106323242188,792.1611938476562
2023-10-11 16:09:54.095097,798.6080322265625,785.3113403320312,805.8607788085938,807.069580078125,794.1758422851562
2023-10-11 16:09:54.096029,802.2344360351562,784.5054931640625,799.010986328125,798.6080322265625,722.05126953125
2023-10-11 16:09:54.097523,807.87548828125,782.087890625,800.2197875976562,797.8021850585938,784.1025390625
2023-10-11 16:09:54.098745,809.084228515625,784.908447265625,802.2344360351562,805.8607788085938,932.7838745117188
2023-10-11 16:09:54.100613,802.2344360351562,790.1465454101562,800.6226806640625,801.4285888671875,977.106201171875
2023-10-11 16:09:54.102378,790.5494384765625,789.7435913085938,799.4139404296875,791.7582397460938,761.94140625
2023-10-11 16:09:54.104321,796.1904907226562,785.7142944335938,798.2051391601562,801.025634765625,676.1171875
2023-10-11 16:09:54.105703,803.040283203125,787.3259887695312,802.2344360351562,813.5164794921875,746.6300659179688
2023-10-11 16:09:54.107413,801.4285888671875,790.5494384765625,803.040283203125,805.4578857421875,770.8058471679688
2023-10-11 16:09:54.149583,799.8168334960938,791.3552856445312,800.2197875976562,793.7728881835938,749.4505615234375
2023-10-11 16:09:54.150750,797.8021850585938,792.5640869140625,799.4139404296875,792.967041015625,786.1171875
2023-10-11 16:09:54.151633,794.981689453125,790.5494384765625,799.8168334960938,800.6226806640625,863.076904296875
2023-10-11 16:09:54.153137,792.967041015625,789.3406372070312,798.6080322265625,803.8461303710938,788.5347900390625
2023-10-11 16:09:54.154330,795.7875366210938,790.952392578125,799.010986328125,805.4578857421875,754.6886596679688
2023-10-11 16:09:54.159615,799.010986328125,793.7728881835938,801.025634765625,808.6813354492188,917.4725341796875
2023-10-11 16:09:54.163793,792.5640869140625,788.1318969726562,803.040283203125,810.6959838867188,1109.6702880859375
2023-10-11 16:09:54.165256,792.5640869140625,786.1171875,803.4432373046875,807.069580078125,896.1171875
2023-10-11 16:09:54.166626,808.2783813476562,784.908447265625,802.2344360351562,807.4725341796875,661.6116943359375
2023-10-11 16:09:54.167954,807.4725341796875,784.908447265625,801.4285888671875,819.5604248046875,747.8388061523438
2023-10-11 16:09:54.169342,789.7435913085938,787.7289428710938,799.4139404296875,802.6373901367188,797.8021850585938
2023-10-11 16:09:54.170655,779.6703491210938,786.5201416015625,794.981689453125,779.2673950195312,733.3333129882812
2023-10-11 16:09:54.180273,779.2673950195312,789.3406372070312,796.996337890625,778.05859375,697.4725341796875
2023-10-11 16:09:54.181717,778.8644409179688,790.1465454101562,798.6080322265625,766.3735961914062,734.5421142578125
2023-10-11 16:09:54.183493,780.0732421875,786.923095703125,797.8021850585938,757.5091552734375,784.908447265625
2023-10-11 16:09:54.184918,778.4615478515625,790.5494384765625,799.8168334960938,772.0146484375,749.047607421875
2023-10-11 16:09:54.186763,766.3735961914062,792.5640869140625,800.2197875976562,780.4761962890625,685.7875366210938
2023-10-11 16:09:54.198620,761.1355590820312,790.952392578125,799.4139404296875,780.0732421875,833.6630249023438
2023-10-11 16:09:54.200022,770.8058471679688,790.5494384765625,798.6080322265625,780.4761962890625,942.05126953125
2023-10-11 16:09:54.201270,779.6703491210938,793.3699340820312,796.996337890625,777.6557006835938,797.8021850585938
2023-10-11 16:09:54.202424,782.087890625,794.1758422851562,800.2197875976562,781.6849975585938,706.3369750976562
2023-10-11 16:09:54.203779,777.2527465820312,791.3552856445312,801.4285888671875,775.6410522460938,829.6337280273438
2023-10-11 16:09:54.205253,780.4761962890625,795.3846435546875,800.6226806640625,770.8058471679688,853.003662109375
2023-10-11 16:09:54.206523,789.3406372070312,798.2051391601562,800.2197875976562,773.6264038085938,699.4871826171875
2023-10-11 16:09:54.248005,793.7728881835938,796.996337890625,798.6080322265625,780.4761962890625,733.3333129882812
2023-10-11 16:09:54.249867,795.7875366210938,795.3846435546875,799.8168334960938,790.1465454101562,790.1465454101562
2023-10-11 16:09:54.251424,789.3406372070312,794.5787353515625,796.996337890625,788.1318969726562,700.2930297851562
2023-10-11 16:09:54.252816,783.2966918945312,795.7875366210938,794.1758422851562,782.893798828125,628.974365234375
2023-10-11 16:09:54.254099,784.908447265625,793.7728881835938,796.996337890625,778.4615478515625,689.010986328125
2023-10-11 16:09:54.255387,790.952392578125,792.5640869140625,797.3992919921875,775.6410522460938,827.6190185546875
2023-10-11 16:09:54.256463,792.5640869140625,796.1904907226562,799.010986328125,780.0732421875,896.1171875
2023-10-11 16:09:54.258241,790.952392578125,801.4285888671875,799.4139404296875,786.1171875,811.90478515625
2023-10-11 16:09:54.259316,792.967041015625,802.6373901367188,805.054931640625,794.1758422851562,778.8644409179688
2023-10-11 16:09:54.260471,795.7875366210938,802.2344360351562,807.4725341796875,793.3699340820312,943.6630249023438
2023-10-11 16:09:54.261449,795.7875366210938,799.8168334960938,803.4432373046875,782.4908447265625,883.6264038085938
2023-10-11 16:09:54.262453,794.1758422851562,794.5787353515625,801.8314819335938,778.05859375,751.062255859375
2023-10-11 16:09:54.279652,796.996337890625,794.5787353515625,800.2197875976562,784.1025390625,792.967041015625
2023-10-11 16:09:54.281043,794.981689453125,795.7875366210938,801.4285888671875,796.5933837890625,822.7838745117188
2023-10-11 16:09:54.282415,793.7728881835938,793.7728881835938,797.3992919921875,797.8021850585938,771.6116943359375
2023-10-11 16:09:54.285888,800.6226806640625,793.3699340820312,792.1611938476562,794.981689453125,794.5787353515625
2023-10-11 16:09:54.288309,800.6226806640625,794.981689453125,796.5933837890625,794.981689453125,832.4542236328125
2023-10-11 16:09:54.289943,796.996337890625,797.3992919921875,800.6226806640625,795.3846435546875,853.003662109375
2023-10-11 16:09:54.291760,799.8168334960938,801.4285888671875,804.6520385742188,802.2344360351562,808.6813354492188
2023-10-11 16:09:54.299410,796.5933837890625,795.3846435546875,806.6666870117188,799.8168334960938,708.7545776367188
2023-10-11 16:09:54.300711,803.8461303710938,790.5494384765625,807.4725341796875,799.010986328125,819.5604248046875
2023-10-11 16:09:54.301888,809.084228515625,791.7582397460938,804.2490844726562,814.3223266601562,948.901123046875
2023-10-11 16:09:54.303290,802.6373901367188,792.967041015625,801.8314819335938,816.7399291992188,807.069580078125
2023-10-11 16:09:54.304615,792.5640869140625,796.996337890625,806.6666870117188,813.113525390625,764.3589477539062
2023-10-11 16:09:54.318268,788.5347900390625,798.2051391601562,809.4871826171875,819.1575317382812,853.003662109375
2023-10-11 16:09:54.319698,794.1758422851562,800.6226806640625,808.2783813476562,819.96337890625,840.915771484375
2023-10-11 16:09:54.320963,792.967041015625,796.5933837890625,803.8461303710938,821.97802734375,773.2234497070312
2023-10-11 16:09:54.322191,788.1318969726562,790.1465454101562,800.2197875976562,816.7399291992188,758.3150024414062
2023-10-11 16:09:54.323506,786.5201416015625,792.1611938476562,801.8314819335938,809.89013671875,765.970703125
2023-10-11 16:09:54.324841,784.1025390625,790.5494384765625,801.4285888671875,807.4725341796875,762.3442993164062
2023-10-11 16:09:54.325975,788.1318969726562,792.1611938476562,803.8461303710938,801.025634765625,781.2820434570312
2023-10-11 16:09:54.327689,798.6080322265625,792.967041015625,806.6666870117188,805.4578857421875,819.5604248046875
2023-10-11 16:09:54.329101,800.2197875976562,791.7582397460938,804.6520385742188,817.5457763671875,962.1978149414062
2023-10-11 16:09:54.330294,791.3552856445312,790.5494384765625,803.040283203125,814.7252807617188,854.6153564453125
2023-10-11 16:09:54.331471,786.1171875,789.7435913085938,802.2344360351562,805.4578857421875,693.040283203125
2023-10-11 16:09:54.332825,790.952392578125,792.967041015625,803.8461303710938,811.098876953125,741.7948608398438
2023-10-11 16:09:54.378798,792.1611938476562,792.1611938476562,800.6226806640625,820.3662719726562,785.7142944335938
2023-10-11 16:09:54.379919,789.3406372070312,790.5494384765625,795.3846435546875,814.3223266601562,849.3773193359375
2023-10-11 16:09:54.381173,786.5201416015625,796.1904907226562,802.2344360351562,808.2783813476562,817.94873046875
2023-10-11 16:09:54.382732,784.908447265625,797.8021850585938,803.040283203125,811.90478515625,785.3113403320312
2023-10-11 16:09:54.385663,795.3846435546875,792.967041015625,799.010986328125,818.7545776367188,813.113525390625
2023-10-11 16:09:54.387281,802.6373901367188,793.3699340820312,798.2051391601562,815.93408203125,831.6483764648438
2023-10-11 16:09:54.388838,806.6666870117188,795.7875366210938,797.8021850585938,813.5164794921875,811.098876953125
2023-10-11 16:09:54.390224,804.2490844726562,795.7875366210938,800.6226806640625,818.3516235351562,870.7326049804688
2023-10-11 16:09:54.391442,791.7582397460938,794.1758422851562,800.6226806640625,820.7692260742188,927.94873046875
2023-10-11 16:09:54.400354,795.3846435546875,794.5787353515625,798.6080322265625,813.113525390625,718.4249267578125
2023-10-11 16:09:54.401737,809.4871826171875,796.1904907226562,800.2197875976562,808.6813354492188,712.7838745117188
2023-10-11 16:09:54.403178,813.91943359375,797.8021850585938,799.4139404296875,812.7106323242188,807.4725341796875
2023-10-11 16:09:54.404628,813.5164794921875,792.1611938476562,799.8168334960938,826.4102783203125,742.6007080078125
2023-10-11 16:09:54.406287,813.113525390625,790.1465454101562,803.4432373046875,829.6337280273438,696.6666870117188
2023-10-11 16:09:54.407358,795.7875366210938,796.1904907226562,797.8021850585938,797.8021850585938,734.1392211914062
2023-10-11 16:09:54.408381,783.2966918945312,797.8021850585938,796.5933837890625,778.8644409179688,813.5164794921875
2023-10-11 16:09:54.409793,787.7289428710938,794.5787353515625,799.8168334960938,787.3259887695312,842.930419921875
2023-10-11 16:09:54.411123,787.3259887695312,797.3992919921875,798.6080322265625,793.3699340820312,838.901123046875
2023-10-11 16:09:54.413068,778.4615478515625,798.6080322265625,802.2344360351562,781.2820434570312,810.2930297851562
2023-10-11 16:09:54.414378,773.6264038085938,800.6226806640625,801.025634765625,769.1941528320312,938.02197265625
2023-10-11 16:09:54.416418,775.6410522460938,804.6520385742188,793.3699340820312,760.3296508789062,886.8497924804688
2023-10-11 16:09:54.418625,780.4761962890625,805.054931640625,793.3699340820312,755.091552734375,738.5714111328125
2023-10-11 16:09:54.420017,777.2527465820312,807.87548828125,793.7728881835938,762.7472534179688,762.7472534179688
2023-10-11 16:09:54.421411,772.0146484375,807.4725341796875,790.952392578125,770.4029541015625,803.040283203125
2023-10-11 16:09:54.464336,773.6264038085938,804.2490844726562,790.5494384765625,773.2234497070312,735.7509155273438
2023-10-11 16:09:54.465809,785.3113403320312,802.6373901367188,797.3992919921875,772.8204956054688,705.5311279296875
2023-10-11 16:09:54.466787,791.7582397460938,805.054931640625,800.2197875976562,779.2673950195312,785.7142944335938
2023-10-11 16:09:54.467998,789.7435913085938,806.6666870117188,796.5933837890625,782.087890625,813.113525390625
2023-10-11 16:09:54.469310,791.3552856445312,804.2490844726562,798.6080322265625,783.6996459960938,778.05859375
2023-10-11 16:09:54.470470,792.967041015625,805.8607788085938,798.2051391601562,786.1171875,788.5347900390625
2023-10-11 16:09:54.471492,794.981689453125,807.87548828125,797.3992919921875,790.1465454101562,908.2051391601562
2023-10-11 16:09:54.472633,794.1758422851562,808.6813354492188,797.8021850585938,794.981689453125,1092.3443603515625
2023-10-11 16:09:54.473745,785.3113403320312,805.8607788085938,796.5933837890625,790.952392578125,877.9853515625
2023-10-11 16:09:54.474835,784.5054931640625,803.8461303710938,799.010986328125,791.3552856445312,708.7545776367188
2023-10-11 16:09:54.475882,794.5787353515625,810.6959838867188,803.8461303710938,801.8314819335938,802.6373901367188
2023-10-11 16:09:54.485892,801.4285888671875,808.6813354492188,806.2637329101562,802.6373901367188,786.1171875
2023-10-11 16:09:54.531267,799.010986328125,799.010986328125,801.8314819335938,798.2051391601562,703.5164794921875
2023-10-11 16:09:54.532975,792.5640869140625,795.3846435546875,796.5933837890625,796.1904907226562,714.7985229492188
2023-10-11 16:09:54.535062,790.5494384765625,800.2197875976562,796.996337890625,794.981689453125,733.3333129882812
2023-10-11 16:09:54.537424,788.1318969726562,805.054931640625,796.1904907226562,800.2197875976562,715.6043701171875
2023-10-11 16:09:54.539529,789.7435913085938,804.2490844726562,796.5933837890625,810.6959838867188,685.7875366210938
2023-10-11 16:09:54.542099,797.3992919921875,804.6520385742188,795.7875366210938,808.2783813476562,845.7509155273438
2023-10-11 16:09:54.543679,796.1904907226562,803.040283203125,794.1758422851562,805.8607788085938,1098.3883056640625
2023-10-11 16:09:54.545389,793.3699340820312,799.4139404296875,793.7728881835938,807.4725341796875,923.5164794921875
2023-10-11 16:09:54.549067,794.981689453125,803.8461303710938,794.1758422851562,805.8607788085938,701.90478515625
2023-10-11 16:09:54.550375,801.8314819335938,804.6520385742188,797.3992919921875,810.6959838867188,788.937744140625
2023-10-11 16:09:54.552510,812.3076782226562,803.4432373046875,797.3992919921875,813.113525390625,941.2454223632812
2023-10-11 16:09:54.556243,806.2637329101562,803.8461303710938,794.1758422851562,806.6666870117188,841.3186645507812
2023-10-11 16:09:54.565269,799.010986328125,803.4432373046875,794.5787353515625,804.2490844726562,741.3919677734375
2023-10-11 16:09:54.566621,804.2490844726562,805.054931640625,795.3846435546875,803.040283203125,731.3186645507812
2023-10-11 16:09:54.569416,803.4432373046875,805.054931640625,796.5933837890625,797.3992919921875,729.7069702148438
2023-10-11 16:09:54.571103,805.054931640625,803.8461303710938,796.5933837890625,796.5933837890625,738.5714111328125
2023-10-11 16:09:54.572999,809.4871826171875,804.2490844726562,797.8021850585938,800.2197875976562,728.4981689453125
2023-10-11 16:09:54.574172,804.6520385742188,801.4285888671875,796.5933837890625,801.4285888671875,877.1795043945312
2023-10-11 16:09:54.575492,798.6080322265625,800.2197875976562,793.3699340820312,799.8168334960938,914.2490844726562
2023-10-11 16:09:54.576824,796.1904907226562,799.8168334960938,792.5640869140625,801.025634765625,724.06591796875
2023-10-11 16:09:54.578020,807.069580078125,802.2344360351562,795.7875366210938,806.2637329101562,707.94873046875
2023-10-11 16:09:54.579118,809.4871826171875,805.054931640625,799.010986328125,808.6813354492188,848.5714111328125
2023-10-11 16:09:54.580355,803.040283203125,805.054931640625,796.5933837890625,805.054931640625,848.1685180664062
2023-10-11 16:09:54.581535,796.1904907226562,799.4139404296875,795.3846435546875,801.4285888671875,706.7399291992188
2023-10-11 16:09:54.607465,793.7728881835938,796.1904907226562,796.5933837890625,796.1904907226562,748.2417602539062
2023-10-11 16:09:54.615438,801.025634765625,802.2344360351562,797.8021850585938,788.937744140625,863.8828125
2023-10-11 16:09:54.616916,802.2344360351562,805.4578857421875,794.981689453125,788.1318969726562,796.5933837890625
2023-10-11 16:09:54.617887,795.7875366210938,806.2637329101562,794.1758422851562,792.5640869140625,694.6520385742188
2023-10-11 16:09:54.618821,790.952392578125,805.4578857421875,794.5787353515625,788.937744140625,761.5384521484375
2023-10-11 16:09:54.619683,793.3699340820312,803.4432373046875,794.5787353515625,794.1758422851562,873.9560546875
2023-10-11 16:09:54.620506,798.2051391601562,802.6373901367188,801.025634765625,800.6226806640625,814.3223266601562
2023-10-11 16:09:54.621433,799.8168334960938,800.6226806640625,804.2490844726562,800.6226806640625,717.2161254882812
2023-10-11 16:09:54.622538,791.7582397460938,797.3992919921875,794.981689453125,797.8021850585938,759.5238037109375
2023-10-11 16:09:54.623507,785.7142944335938,799.010986328125,796.5933837890625,801.4285888671875,909.8168334960938
2023-10-11 16:09:54.624514,786.923095703125,801.8314819335938,800.6226806640625,801.025634765625,770.8058471679688
2023-10-11 16:09:54.625550,789.7435913085938,799.4139404296875,796.5933837890625,791.3552856445312,660.8058471679688
2023-10-11 16:09:54.664488,793.7728881835938,792.967041015625,794.5787353515625,790.5494384765625,753.076904296875
2023-10-11 16:09:54.665972,794.1758422851562,793.3699340820312,802.2344360351562,799.4139404296875,775.2380981445312
2023-10-11 16:09:54.667047,787.7289428710938,795.7875366210938,801.8314819335938,801.8314819335938,734.5421142578125
2023-10-11 16:09:54.668323,790.5494384765625,795.3846435546875,801.8314819335938,802.6373901367188,694.6520385742188
2023-10-11 16:09:54.669450,796.5933837890625,793.3699340820312,806.2637329101562,803.040283203125,744.6153564453125
2023-10-11 16:09:54.670646,795.3846435546875,791.7582397460938,803.040283203125,801.025634765625,865.091552734375
2023-10-11 16:09:54.672644,792.1611938476562,790.5494384765625,795.3846435546875,795.3846435546875,816.3369750976562
2023-10-11 16:09:54.673883,787.7289428710938,792.1611938476562,794.1758422851562,793.7728881835938,733.3333129882812
2023-10-11 16:09:54.675272,789.3406372070312,798.2051391601562,803.4432373046875,796.996337890625,832.4542236328125
2023-10-11 16:09:54.677126,794.981689453125,796.1904907226562,804.6520385742188,790.952392578125,925.93408203125
2023-10-11 16:09:54.679254,800.6226806640625,793.7728881835938,801.4285888671875,791.7582397460938,787.7289428710938
2023-10-11 16:09:54.680687,798.2051391601562,797.3992919921875,799.010986328125,794.981689453125,747.8388061523438
2023-10-11 16:09:54.697678,792.967041015625,794.981689453125,797.8021850585938,794.981689453125,806.2637329101562
2023-10-11 16:09:54.698813,790.5494384765625,794.5787353515625,798.6080322265625,790.952392578125,768.3883056640625
2023-10-11 16:09:54.700014,794.981689453125,794.1758422851562,795.7875366210938,785.3113403320312,735.3479614257812
2023-10-11 16:09:54.706263,799.8168334960938,793.7728881835938,796.1904907226562,788.5347900390625,802.6373901367188
2023-10-11 16:09:54.707325,798.6080322265625,794.1758422851562,796.5933837890625,795.7875366210938,870.7326049804688
2023-10-11 16:09:54.708399,796.1904907226562,796.1904907226562,798.2051391601562,796.996337890625,868.7179565429688
2023-10-11 16:09:54.709381,794.981689453125,801.025634765625,799.8168334960938,794.981689453125,832.8571166992188
2023-10-11 16:09:54.710472,798.6080322265625,800.2197875976562,797.8021850585938,792.1611938476562,817.1428833007812
2023-10-11 16:09:54.712089,801.8314819335938,799.010986328125,798.2051391601562,793.7728881835938,978.3150024414062
2023-10-11 16:09:54.713512,796.1904907226562,800.6226806640625,794.981689453125,792.967041015625,894.908447265625
2023-10-11 16:09:54.715323,786.5201416015625,798.6080322265625,793.3699340820312,786.1171875,704.3223266601562
2023-10-11 16:09:54.716613,781.6849975585938,797.8021850585938,792.967041015625,789.3406372070312,763.1502075195312
2023-10-11 16:09:54.764330,782.087890625,797.3992919921875,788.1318969726562,786.5201416015625,814.3223266601562
2023-10-11 16:09:54.765617,784.5054931640625,795.3846435546875,787.3259887695312,778.4615478515625,763.1502075195312
2023-10-11 16:09:54.766872,786.923095703125,796.1904907226562,794.1758422851562,782.4908447265625,749.047607421875
2023-10-11 16:09:54.768516,788.937744140625,793.3699340820312,799.010986328125,788.937744140625,759.9267578125
2023-10-11 16:09:54.769870,784.908447265625,796.1904907226562,795.3846435546875,783.2966918945312,778.4615478515625
2023-10-11 16:09:54.771196,787.7289428710938,796.5933837890625,793.3699340820312,784.1025390625,816.7399291992188
2023-10-11 16:09:54.772853,798.2051391601562,795.3846435546875,797.3992919921875,792.1611938476562,819.1575317382812
2023-10-11 16:09:54.774576,799.010986328125,796.5933837890625,804.6520385742188,790.5494384765625,899.7435913085938
2023-10-11 16:09:54.775906,794.1758422851562,795.3846435546875,805.054931640625,796.1904907226562,1018.6080322265625
2023-10-11 16:09:54.777329,795.3846435546875,796.996337890625,802.2344360351562,794.1758422851562,819.1575317382812
2023-10-11 16:09:54.778808,799.8168334960938,799.4139404296875,804.2490844726562,796.1904907226562,682.967041015625
2023-10-11 16:09:54.780376,801.4285888671875,799.4139404296875,805.054931640625,799.4139404296875,809.4871826171875
2023-10-11 16:09:54.797818,801.4285888671875,797.3992919921875,803.8461303710938,794.981689453125,830.4395751953125
2023-10-11 16:09:54.798935,790.5494384765625,798.2051391601562,801.025634765625,795.7875366210938,711.1721801757812
2023-10-11 16:09:54.799897,777.2527465820312,794.1758422851562,798.6080322265625,794.5787353515625,705.1282348632812
2023-10-11 16:09:54.801105,783.2966918945312,792.967041015625,799.4139404296875,796.5933837890625,742.6007080078125
2023-10-11 16:09:54.802096,794.981689453125,793.3699340820312,799.8168334960938,796.5933837890625,738.5714111328125
2023-10-11 16:09:54.809813,797.8021850585938,792.1611938476562,797.3992919921875,792.967041015625,778.05859375
2023-10-11 16:09:54.810996,794.5787353515625,792.5640869140625,792.5640869140625,797.3992919921875,850.1831665039062
2023-10-11 16:09:54.812138,787.3259887695312,791.3552856445312,794.1758422851562,805.4578857421875,983.1502075195312
2023-10-11 16:09:54.813619,781.2820434570312,791.3552856445312,798.6080322265625,806.6666870117188,849.7802124023438
2023-10-11 16:09:54.814659,790.952392578125,789.3406372070312,797.3992919921875,801.4285888671875,673.2966918945312
2023-10-11 16:09:54.816390,803.040283203125,787.7289428710938,796.996337890625,800.2197875976562,720.4395751953125
2023-10-11 16:09:54.819079,802.2344360351562,790.5494384765625,796.1904907226562,805.054931640625,842.12451171875
2023-10-11 16:09:54.865560,801.4285888671875,796.1904907226562,802.2344360351562,811.90478515625,805.4578857421875
2023-10-11 16:09:54.866608,802.2344360351562,799.010986328125,806.6666870117188,812.3076782226562,712.3809814453125
2023-10-11 16:09:54.867832,803.8461303710938,796.5933837890625,801.4285888671875,811.098876953125,782.4908447265625
2023-10-11 16:09:54.868966,801.8314819335938,793.7728881835938,798.2051391601562,803.8461303710938,858.6447143554688
2023-10-11 16:09:54.870094,797.3992919921875,788.5347900390625,800.6226806640625,798.6080322265625,806.6666870117188
2023-10-11 16:09:54.871353,790.1465454101562,786.5201416015625,801.8314819335938,803.8461303710938,770.4029541015625
2023-10-11 16:09:54.872898,788.5347900390625,787.3259887695312,800.6226806640625,802.6373901367188,877.5823974609375
2023-10-11 16:09:54.874138,791.3552856445312,786.923095703125,799.010986328125,796.1904907226562,951.7216186523438
2023-10-11 16:09:54.875287,801.4285888671875,790.1465454101562,800.2197875976562,791.3552856445312,787.3259887695312
2023-10-11 16:09:54.876490,811.098876953125,794.5787353515625,798.6080322265625,783.2966918945312,734.1392211914062
2023-10-11 16:09:54.877560,813.91943359375,796.1904907226562,797.3992919921875,784.1025390625,767.9853515625
2023-10-11 16:09:54.878708,813.91943359375,799.4139404296875,801.025634765625,790.952392578125,724.4688720703125
2023-10-11 16:09:54.905428,819.96337890625,799.010986328125,805.054931640625,791.3552856445312,716.00732421875
2023-10-11 16:09:54.907177,823.1868286132812,790.952392578125,801.8314819335938,795.3846435546875,774.029296875
2023-10-11 16:09:54.908924,809.4871826171875,784.908447265625,796.5933837890625,812.3076782226562,861.062255859375
2023-10-11 16:09:54.911167,792.967041015625,787.3259887695312,798.2051391601562,810.2930297851562,789.3406372070312
2023-10-11 16:09:54.912850,785.3113403320312,790.952392578125,801.4285888671875,801.8314819335938,685.3846435546875
2023-10-11 16:09:54.914476,787.7289428710938,790.1465454101562,799.8168334960938,802.6373901367188,786.1171875
2023-10-11 16:09:54.915464,784.908447265625,789.7435913085938,798.6080322265625,805.4578857421875,1029.084228515625
2023-10-11 16:09:54.921423,782.893798828125,790.952392578125,799.4139404296875,810.6959838867188,947.2893676757812
2023-10-11 16:09:54.922349,779.2673950195312,792.967041015625,796.996337890625,806.2637329101562,725.2747192382812
2023-10-11 16:09:54.923402,776.0439453125,795.3846435546875,797.8021850585938,808.2783813476562,737.7655639648438
2023-10-11 16:09:54.924578,792.5640869140625,796.996337890625,801.8314819335938,813.113525390625,813.5164794921875
2023-10-11 16:09:54.925613,799.8168334960938,797.3992919921875,799.8168334960938,812.3076782226562,790.1465454101562
2023-10-11 16:09:54.930802,799.010986328125,799.4139404296875,798.2051391601562,811.098876953125,754.6886596679688
2023-10-11 16:09:54.932784,798.6080322265625,796.996337890625,802.2344360351562,809.4871826171875,765.1648559570312
2023-10-11 16:09:54.934010,792.1611938476562,795.3846435546875,804.2490844726562,808.2783813476562,761.94140625
2023-10-11 16:09:54.935293,796.5933837890625,796.996337890625,798.2051391601562,801.4285888671875,709.5604248046875
2023-10-11 16:09:54.936573,805.054931640625,798.2051391601562,796.5933837890625,799.010986328125,722.8571166992188
2023-10-11 16:09:54.938247,805.054931640625,798.2051391601562,801.025634765625,805.4578857421875,875.970703125
2023-10-11 16:09:54.939667,803.040283203125,799.010986328125,802.2344360351562,814.3223266601562,985.970703125
2023-10-11 16:09:54.942407,803.040283203125,798.6080322265625,801.4285888671875,817.1428833007812,882.0146484375
2023-10-11 16:09:54.943790,808.2783813476562,797.3992919921875,803.8461303710938,813.91943359375,718.02197265625
2023-10-11 16:09:54.947157,810.2930297851562,801.4285888671875,802.2344360351562,806.2637329101562,814.7252807617188
2023-10-11 16:09:54.949606,812.3076782226562,801.4285888671875,800.6226806640625,808.2783813476562,903.3699340820312
2023-10-11 16:09:54.950711,812.3076782226562,796.996337890625,799.4139404296875,813.91943359375,759.5238037109375
2023-10-11 16:09:55.000167,808.6813354492188,797.3992919921875,796.5933837890625,811.5018310546875,689.4139404296875
2023-10-11 16:09:55.002896,811.098876953125,800.6226806640625,799.010986328125,808.6813354492188,740.1831665039062
2023-10-11 16:09:55.005358,814.3223266601562,802.2344360351562,802.6373901367188,808.6813354492188,746.2271118164062
2023-10-11 16:09:55.006909,812.7106323242188,804.2490844726562,804.2490844726562,809.89013671875,731.7216186523438
2023-10-11 16:09:55.008972,803.8461303710938,802.6373901367188,799.010986328125,807.87548828125,777.6557006835938
2023-10-11 16:09:55.010426,796.996337890625,801.8314819335938,797.8021850585938,807.87548828125,841.7216186523438
2023-10-11 16:09:55.013489,801.8314819335938,801.4285888671875,800.6226806640625,812.3076782226562,815.93408203125
2023-10-11 16:09:55.015739,803.8461303710938,799.4139404296875,795.7875366210938,800.6226806640625,810.6959838867188
2023-10-11 16:09:55.017875,803.8461303710938,797.8021850585938,794.1758422851562,790.952392578125,844.1392211914062
2023-10-11 16:09:55.029360,801.4285888671875,798.6080322265625,796.1904907226562,798.2051391601562,980.3296508789062
2023-10-11 16:09:55.031044,790.952392578125,800.2197875976562,797.8021850585938,801.4285888671875,892.893798828125
2023-10-11 16:09:55.032610,786.923095703125,797.8021850585938,798.6080322265625,799.4139404296875,716.00732421875
2023-10-11 16:09:55.041877,797.8021850585938,799.4139404296875,794.981689453125,797.8021850585938,743.003662109375
2023-10-11 16:09:55.043730,803.040283203125,798.6080322265625,795.3846435546875,797.3992919921875,778.8644409179688
2023-10-11 16:09:55.045834,801.025634765625,801.4285888671875,794.5787353515625,796.5933837890625,742.6007080078125
2023-10-11 16:09:55.048117,796.5933837890625,802.6373901367188,792.967041015625,792.1611938476562,709.1575317382812
2023-10-11 16:09:55.051454,797.3992919921875,799.8168334960938,796.996337890625,788.937744140625,739.3773193359375
2023-10-11 16:09:55.053562,802.6373901367188,796.5933837890625,795.7875366210938,790.1465454101562,774.8351440429688
2023-10-11 16:09:55.056555,800.2197875976562,796.5933837890625,796.5933837890625,790.5494384765625,799.010986328125
2023-10-11 16:09:55.058224,798.6080322265625,800.6226806640625,798.6080322265625,788.5347900390625,760.7326049804688
2023-10-11 16:09:55.059810,791.7582397460938,799.010986328125,792.967041015625,791.3552856445312,812.3076782226562
2023-10-11 16:09:55.061373,786.5201416015625,797.3992919921875,790.952392578125,788.937744140625,900.5494384765625
2023-10-11 16:09:55.062933,788.937744140625,793.7728881835938,787.3259887695312,779.6703491210938,778.8644409179688
2023-10-11 16:09:55.064415,797.8021850585938,794.981689453125,785.7142944335938,788.5347900390625,751.8681030273438
2023-10-11 16:09:55.073133,798.2051391601562,796.5933837890625,788.937744140625,796.996337890625,841.7216186523438
2023-10-11 16:09:55.075898,788.937744140625,793.3699340820312,795.3846435546875,788.5347900390625,782.4908447265625
2023-10-11 16:09:55.077264,784.908447265625,789.7435913085938,798.6080322265625,786.5201416015625,680.952392578125
2023-10-11 16:09:55.082028,789.7435913085938,792.967041015625,798.2051391601562,789.7435913085938,716.8131713867188
2023-10-11 16:09:55.083735,800.2197875976562,798.6080322265625,802.2344360351562,791.7582397460938,811.90478515625
2023-10-11 16:09:55.085615,799.010986328125,799.010986328125,806.2637329101562,799.4139404296875,850.1831665039062
2023-10-11 16:09:55.087398,792.5640869140625,797.3992919921875,805.8607788085938,807.4725341796875,827.6190185546875
2023-10-11 16:09:55.089592,790.952392578125,796.996337890625,803.040283203125,807.069580078125,783.6996459960938
2023-10-11 16:09:55.092330,789.3406372070312,795.7875366210938,801.4285888671875,807.069580078125,916.6666870117188
2023-10-11 16:09:55.094428,794.1758422851562,793.7728881835938,800.6226806640625,815.1282348632812,900.1465454101562
2023-10-11 16:09:55.096424,798.2051391601562,794.1758422851562,798.2051391601562,811.098876953125,760.3296508789062
2023-10-11 16:09:55.104304,795.7875366210938,796.5933837890625,799.4139404296875,799.4139404296875,780.879150390625
2023-10-11 16:09:55.133912,786.923095703125,798.6080322265625,803.040283203125,798.6080322265625,789.7435913085938
2023-10-11 16:09:55.134902,798.2051391601562,801.4285888671875,796.5933837890625,800.6226806640625,769.1941528320312
2023-10-11 16:09:55.135950,821.5750732421875,802.2344360351562,792.967041015625,807.87548828125,736.5567626953125
2023-10-11 16:09:55.136958,813.91943359375,799.8168334960938,803.8461303710938,815.1282348632812,793.3699340820312
2023-10-11 16:09:55.137838,792.5640869140625,796.996337890625,808.2783813476562,815.93408203125,858.6447143554688
2023-10-11 16:09:55.138639,787.3259887695312,794.981689453125,807.87548828125,808.2783813476562,810.6959838867188
2023-10-11 16:09:55.139551,792.967041015625,792.1611938476562,810.2930297851562,803.4432373046875,793.7728881835938
2023-10-11 16:09:55.140536,799.8168334960938,786.1171875,812.3076782226562,815.93408203125,850.989013671875
2023-10-11 16:09:55.141529,800.6226806640625,787.3259887695312,812.3076782226562,819.1575317382812,946.08056640625
2023-10-11 16:09:55.142579,794.981689453125,791.7582397460938,813.5164794921875,811.5018310546875,790.5494384765625
2023-10-11 16:09:55.143431,791.3552856445312,786.5201416015625,813.91943359375,815.93408203125,721.2454223632812
2023-10-11 16:09:55.144387,800.6226806640625,782.4908447265625,816.7399291992188,824.3956298828125,743.8095092773438
2023-10-11 16:09:55.164478,807.4725341796875,782.893798828125,816.3369750976562,823.1868286132812,689.010986328125
2023-10-11 16:09:55.165851,805.8607788085938,783.2966918945312,807.4725341796875,819.96337890625,711.97802734375
2023-10-11 16:09:55.167268,804.6520385742188,783.2966918945312,803.040283203125,816.3369750976562,739.7802124023438
2023-10-11 16:09:55.168976,799.4139404296875,780.879150390625,803.8461303710938,804.2490844726562,765.5677490234375
2023-10-11 16:09:55.170396,803.4432373046875,784.5054931640625,804.6520385742188,811.098876953125,851.3919677734375
2023-10-11 16:09:55.172285,809.084228515625,787.3259887695312,804.6520385742188,812.3076782226562,895.3113403320312
2023-10-11 16:09:55.173731,810.2930297851562,789.7435913085938,809.084228515625,811.5018310546875,873.9560546875
2023-10-11 16:09:55.175394,806.6666870117188,794.1758422851562,810.6959838867188,819.96337890625,980.7326049804688
2023-10-11 16:09:55.176744,799.8168334960938,792.1611938476562,807.87548828125,817.5457763671875,894.908447265625
2023-10-11 16:09:55.178376,802.6373901367188,788.937744140625,805.054931640625,815.93408203125,686.5933837890625
2023-10-11 16:09:55.179698,808.6813354492188,793.3699340820312,804.6520385742188,821.1721801757812,727.6923217773438
2023-10-11 16:09:55.181548,809.4871826171875,796.1904907226562,803.8461303710938,823.1868286132812,816.7399291992188
2023-10-11 16:09:55.203502,806.2637329101562,793.3699340820312,808.2783813476562,824.7985229492188,737.7655639648438
2023-10-11 16:09:55.221665,799.010986328125,788.5347900390625,810.2930297851562,826.00732421875,673.6996459960938
2023-10-11 16:09:55.222786,799.4139404296875,778.4615478515625,804.6520385742188,819.5604248046875,740.5860595703125
2023-10-11 16:09:55.224304,808.2783813476562,771.2088012695312,801.4285888671875,811.90478515625,734.1392211914062
2023-10-11 16:09:55.225623,810.2930297851562,773.6264038085938,799.8168334960938,805.8607788085938,721.6483764648438
2023-10-11 16:09:55.226863,802.6373901367188,771.2088012695312,796.5933837890625,801.025634765625,796.1904907226562
2023-10-11 16:09:55.232755,794.5787353515625,768.3883056640625,797.8021850585938,801.4285888671875,929.5604248046875
2023-10-11 16:09:55.234504,796.5933837890625,771.6116943359375,798.6080322265625,810.6959838867188,1057.6922607421875
2023-10-11 16:09:55.236284,801.8314819335938,772.8204956054688,794.981689453125,811.90478515625,798.6080322265625
2023-10-11 16:09:55.240589,806.6666870117188,776.0439453125,793.3699340820312,797.3992919921875,680.5494384765625
2023-10-11 16:09:55.242599,805.4578857421875,779.6703491210938,794.981689453125,794.5787353515625,818.7545776367188
2023-10-11 16:09:55.244724,801.8314819335938,781.6849975585938,794.1758422851562,804.2490844726562,770.0
2023-10-11 16:09:55.265073,803.4432373046875,786.5201416015625,793.3699340820312,801.8314819335938,660.4029541015625
2023-10-11 16:09:55.266994,813.5164794921875,790.5494384765625,796.1904907226562,794.5787353515625,707.5457763671875
2023-10-11 16:09:55.269025,816.7399291992188,792.5640869140625,799.4139404296875,799.010986328125,782.893798828125
2023-10-11 16:09:55.271727,805.8607788085938,793.3699340820312,801.025634765625,802.6373901367188,739.7802124023438
2023-10-11 16:09:55.273857,793.7728881835938,786.1171875,796.996337890625,801.025634765625,670.4761962890625
2023-10-11 16:09:55.276341,789.3406372070312,782.4908447265625,794.5787353515625,805.4578857421875,774.029296875
2023-10-11 16:09:55.278470,792.967041015625,785.7142944335938,799.010986328125,809.89013671875,988.3883056640625
2023-10-11 16:09:55.279786,794.981689453125,786.923095703125,799.010986328125,806.2637329101562,884.4322509765625
2023-10-11 16:09:55.281125,792.1611938476562,785.7142944335938,798.2051391601562,800.2197875976562,728.4981689453125
2023-10-11 16:09:55.282400,792.5640869140625,786.5201416015625,799.010986328125,799.010986328125,751.8681030273438
2023-10-11 16:09:55.283712,791.3552856445312,785.3113403320312,798.2051391601562,802.2344360351562,754.6886596679688
2023-10-11 16:09:55.284996,787.7289428710938,786.5201416015625,798.2051391601562,797.3992919921875,702.7106323242188
2023-10-11 16:09:55.334921,794.1758422851562,788.937744140625,799.010986328125,792.967041015625,695.8607788085938
2023-10-11 16:09:55.336007,800.2197875976562,789.3406372070312,797.3992919921875,794.1758422851562,764.7619018554688
2023-10-11 16:09:55.337409,789.3406372070312,791.7582397460938,796.1904907226562,789.7435913085938,803.040283203125
2023-10-11 16:09:55.345206,781.6849975585938,794.981689453125,794.981689453125,789.7435913085938,748.6447143554688
2023-10-11 16:09:55.346348,792.967041015625,799.8168334960938,798.2051391601562,795.3846435546875,697.87548828125
2023-10-11 16:09:55.347622,801.8314819335938,797.3992919921875,801.025634765625,800.2197875976562,830.4395751953125
2023-10-11 16:09:55.348711,801.025634765625,797.3992919921875,798.6080322265625,801.8314819335938,919.084228515625
2023-10-11 16:09:55.351377,795.7875366210938,800.2197875976562,798.2051391601562,804.2490844726562,776.8497924804688
2023-10-11 16:09:55.352614,794.981689453125,799.4139404296875,807.069580078125,808.6813354492188,714.7985229492188
2023-10-11 16:09:55.353831,794.5787353515625,799.010986328125,809.89013671875,807.069580078125,848.5714111328125
2023-10-11 16:09:55.355107,797.3992919921875,799.4139404296875,805.054931640625,805.4578857421875,887.2527465820312
2023-10-11 16:09:55.356298,800.6226806640625,800.2197875976562,802.6373901367188,804.6520385742188,769.1941528320312
2023-10-11 16:09:55.372703,796.5933837890625,803.040283203125,804.6520385742188,801.4285888671875,820.7692260742188
2023-10-11 16:09:55.373992,790.952392578125,800.2197875976562,803.040283203125,800.6226806640625,904.5787353515625
2023-10-11 16:09:55.375354,796.5933837890625,798.6080322265625,796.996337890625,807.4725341796875,809.4871826171875
2023-10-11 16:09:55.376565,805.8607788085938,799.8168334960938,797.3992919921875,805.4578857421875,726.886474609375
2023-10-11 16:09:55.377913,800.6226806640625,799.010986328125,803.040283203125,799.4139404296875,788.1318969726562
2023-10-11 16:09:55.379188,793.7728881835938,794.981689453125,801.8314819335938,803.4432373046875,902.5640869140625
2023-10-11 16:09:55.380522,793.7728881835938,796.1904907226562,801.8314819335938,806.6666870117188,861.062255859375
2023-10-11 16:09:55.381736,791.7582397460938,801.025634765625,803.8461303710938,802.2344360351562,726.886474609375
2023-10-11 16:09:55.382903,790.5494384765625,799.010986328125,803.8461303710938,800.6226806640625,745.018310546875
2023-10-11 16:09:55.384157,793.7728881835938,797.3992919921875,803.4432373046875,803.4432373046875,937.6190185546875
2023-10-11 16:09:55.385176,794.5787353515625,794.1758422851562,801.025634765625,799.8168334960938,843.3333129882812
2023-10-11 16:09:55.388605,794.981689453125,795.3846435546875,801.8314819335938,811.098876953125,707.5457763671875
2023-10-11 16:09:55.405666,795.7875366210938,794.5787353515625,796.996337890625,816.3369750976562,728.901123046875
2023-10-11 16:09:55.407227,805.054931640625,795.3846435546875,794.1758422851562,799.010986328125,746.2271118164062
2023-10-11 16:09:55.409105,810.6959838867188,803.8461303710938,797.3992919921875,801.8314819335938,755.091552734375
2023-10-11 16:09:55.410621,800.2197875976562,800.2197875976562,801.8314819335938,802.6373901367188,765.5677490234375
2023-10-11 16:09:55.412473,795.7875366210938,795.3846435546875,805.4578857421875,801.025634765625,805.8607788085938
2023-10-11 16:09:55.420249,799.010986328125,799.4139404296875,805.4578857421875,800.6226806640625,857.032958984375
2023-10-11 16:09:55.421392,801.8314819335938,797.8021850585938,807.4725341796875,794.1758422851562,801.025634765625
2023-10-11 16:09:55.423983,806.6666870117188,796.5933837890625,807.4725341796875,800.2197875976562,713.5897216796875
2023-10-11 16:09:55.425694,809.89013671875,797.3992919921875,807.069580078125,813.91943359375,839.3040161132812
2023-10-11 16:09:55.427516,799.8168334960938,799.010986328125,805.8607788085938,815.93408203125,935.6043701171875
2023-10-11 16:09:55.430070,790.952392578125,797.8021850585938,803.4432373046875,804.6520385742188,763.5531005859375
2023-10-11 16:09:55.431938,796.5933837890625,794.5787353515625,803.4432373046875,798.6080322265625,736.1538696289062
2023-10-11 16:09:55.469867,799.4139404296875,794.5787353515625,805.054931640625,803.8461303710938,826.00732421875
2023-10-11 16:09:55.471968,793.3699340820312,794.5787353515625,805.054931640625,806.2637329101562,807.4725341796875
2023-10-11 16:09:55.473677,785.3113403320312,794.981689453125,805.054931640625,797.3992919921875,760.3296508789062
2023-10-11 16:09:55.475823,788.937744140625,796.5933837890625,805.4578857421875,803.8461303710938,767.5823974609375
2023-10-11 16:09:55.478550,795.7875366210938,794.981689453125,806.2637329101562,807.4725341796875,792.5640869140625
2023-10-11 16:09:55.482766,795.3846435546875,793.3699340820312,804.2490844726562,793.3699340820312,821.5750732421875
2023-10-11 16:09:55.484386,791.7582397460938,792.5640869140625,802.6373901367188,788.937744140625,857.8388061523438
2023-10-11 16:09:55.486074,787.3259887695312,794.1758422851562,804.6520385742188,795.3846435546875,869.120849609375
2023-10-11 16:09:55.488753,781.6849975585938,794.5787353515625,802.2344360351562,801.4285888671875,967.4359130859375
2023-10-11 16:09:55.490476,777.2527465820312,793.7728881835938,799.4139404296875,792.967041015625,846.5567626953125
2023-10-11 16:09:55.492016,786.1171875,793.3699340820312,799.8168334960938,790.5494384765625,682.5640869140625
2023-10-11 16:09:55.493902,786.5201416015625,791.3552856445312,801.025634765625,786.5201416015625,763.5531005859375
2023-10-11 16:09:55.509638,776.8497924804688,790.5494384765625,802.6373901367188,786.5201416015625,819.96337890625
2023-10-11 16:09:55.511360,772.4176025390625,789.7435913085938,801.8314819335938,784.1025390625,738.1685180664062
2023-10-11 16:09:55.512556,764.7619018554688,791.3552856445312,799.8168334960938,773.6264038085938,716.00732421875
2023-10-11 16:09:55.513921,768.3883056640625,795.3846435546875,802.2344360351562,776.4468994140625,761.1355590820312
2023-10-11 16:09:55.514949,771.6116943359375,799.010986328125,801.8314819335938,776.0439453125,759.9267578125
2023-10-11 16:09:55.516405,760.7326049804688,794.981689453125,804.2490844726562,770.0,769.5970458984375
2023-10-11 16:09:55.517650,753.076904296875,792.5640869140625,807.069580078125,771.6116943359375,749.047607421875
2023-10-11 16:09:55.525369,744.2124633789062,790.5494384765625,803.4432373046875,763.9560546875,810.6959838867188
2023-10-11 16:09:55.526387,753.4798583984375,794.1758422851562,807.4725341796875,759.5238037109375,926.7399291992188
2023-10-11 16:09:55.528542,761.5384521484375,797.8021850585938,814.3223266601562,763.5531005859375,801.025634765625
2023-10-11 16:09:55.529758,740.989013671875,794.5787353515625,811.5018310546875,750.6593627929688,759.120849609375
2023-10-11 16:09:55.531071,725.6776733398438,787.3259887695312,811.098876953125,733.7362670898438,848.1685180664062
2023-10-11 16:09:55.538409,732.12451171875,786.1171875,814.7252807617188,726.886474609375,783.2966918945312
2023-10-11 16:09:55.539695,726.4835205078125,785.7142944335938,815.5311279296875,716.4102783203125,721.6483764648438
2023-10-11 16:09:55.540932,712.7838745117188,783.6996459960938,819.96337890625,709.5604248046875,778.05859375
2023-10-11 16:09:55.543035,705.5311279296875,784.5054931640625,821.1721801757812,705.1282348632812,845.3479614257812
2023-10-11 16:09:55.545647,693.4432373046875,780.4761962890625,822.7838745117188,699.4871826171875,786.1171875
2023-10-11 16:09:55.546816,692.2344360351562,777.6557006835938,826.00732421875,696.6666870117188,777.2527465820312
2023-10-11 16:09:55.548549,694.6520385742188,776.8497924804688,827.6190185546875,697.87548828125,834.4688720703125
2023-10-11 16:09:55.549860,689.010986328125,777.6557006835938,828.02197265625,698.6813354492188,993.2234497070312
2023-10-11 16:09:55.550963,685.7875366210938,781.6849975585938,823.5897216796875,693.4432373046875,920.2930297851562
2023-10-11 16:09:55.552266,683.3699340820312,782.4908447265625,823.5897216796875,692.6373901367188,702.3076782226562
2023-10-11 16:09:55.553392,687.3992919921875,782.4908447265625,826.8131713867188,696.6666870117188,680.5494384765625
2023-10-11 16:09:55.554665,697.069580078125,784.908447265625,828.02197265625,703.5164794921875,755.8974609375
2023-10-11 16:09:55.600961,712.7838745117188,787.7289428710938,828.02197265625,710.7692260742188,799.010986328125
2023-10-11 16:09:55.602098,721.2454223632812,790.1465454101562,822.3809814453125,716.4102783203125,768.3883056640625
2023-10-11 16:09:55.603624,718.8278198242188,791.3552856445312,819.5604248046875,720.8424682617188,784.5054931640625
2023-10-11 16:09:55.605082,712.3809814453125,792.967041015625,817.5457763671875,724.4688720703125,796.5933837890625
2023-10-11 16:09:55.606270,721.6483764648438,794.5787353515625,811.098876953125,724.8717651367188,727.6923217773438
2023-10-11 16:09:55.608066,743.4066162109375,792.5640869140625,810.2930297851562,738.974365234375,764.3589477539062
2023-10-11 16:09:55.609437,753.076904296875,791.7582397460938,811.5018310546875,757.5091552734375,893.2966918945312
2023-10-11 16:09:55.610671,761.94140625,794.1758422851562,807.87548828125,761.94140625,995.6410522460938
2023-10-11 16:09:55.611877,766.7765502929688,797.8021850585938,807.4725341796875,759.120849609375,804.6520385742188
2023-10-11 16:09:55.621612,761.94140625,799.010986328125,803.8461303710938,759.5238037109375,690.2197875976562
2023-10-11 16:09:55.622772,777.6557006835938,799.4139404296875,797.8021850585938,774.8351440429688,759.120849609375
2023-10-11 16:09:55.624261,782.4908447265625,799.010986328125,799.010986328125,786.5201416015625,768.7911987304688
2023-10-11 16:09:55.666218,771.2088012695312,799.010986328125,795.7875366210938,780.0732421875,724.4688720703125
2023-10-11 16:09:55.667581,778.8644409179688,802.2344360351562,789.7435913085938,785.3113403320312,717.6190185546875
2023-10-11 16:09:55.671041,797.3992919921875,801.8314819335938,790.952392578125,805.054931640625,845.7509155273438
2023-10-11 16:09:55.673262,807.069580078125,799.8168334960938,791.3552856445312,797.8021850585938,821.97802734375
2023-10-11 16:09:55.675466,814.3223266601562,801.4285888671875,787.3259887695312,792.1611938476562,732.930419921875
2023-10-11 16:09:55.678201,811.90478515625,801.4285888671875,785.3113403320312,803.040283203125,826.00732421875
2023-10-11 16:09:55.679942,809.89013671875,804.6520385742188,785.3113403320312,810.2930297851562,1053.2601318359375
2023-10-11 16:09:55.681442,818.3516235351562,806.6666870117188,783.6996459960938,807.87548828125,917.4725341796875
2023-10-11 16:09:55.683107,827.6190185546875,805.054931640625,781.6849975585938,799.8168334960938,723.2600708007812
2023-10-11 16:09:55.684710,830.4395751953125,808.2783813476562,784.1025390625,806.6666870117188,781.6849975585938
2023-10-11 16:09:55.686312,824.7985229492188,809.89013671875,786.5201416015625,816.3369750976562,823.1868286132812
2023-10-11 16:09:55.688012,815.1282348632812,807.4725341796875,786.923095703125,820.3662719726562,772.4176025390625
2023-10-11 16:09:55.698194,809.084228515625,803.4432373046875,788.937744140625,822.3809814453125,740.1831665039062
2023-10-11 16:09:55.699531,811.5018310546875,802.6373901367188,791.3552856445312,829.2307739257812,778.4615478515625
2023-10-11 16:09:55.700781,817.94873046875,804.6520385742188,788.1318969726562,832.4542236328125,813.113525390625
2023-10-11 16:09:55.702027,808.6813354492188,803.4432373046875,785.3113403320312,831.2454223632812,790.5494384765625
2023-10-11 16:09:55.703316,809.084228515625,799.4139404296875,787.3259887695312,836.886474609375,758.7179565429688
2023-10-11 16:09:55.704639,819.1575317382812,797.8021850585938,793.7728881835938,838.901123046875,871.5384521484375
2023-10-11 16:09:55.705959,820.3662719726562,798.2051391601562,797.8021850585938,836.886474609375,921.098876953125
2023-10-11 16:09:55.707213,820.7692260742188,797.8021850585938,794.5787353515625,837.2893676757812,836.08056640625
2023-10-11 16:09:55.709157,818.7545776367188,799.8168334960938,791.7582397460938,832.4542236328125,770.8058471679688
2023-10-11 16:09:55.710300,815.5311279296875,798.6080322265625,789.3406372070312,826.4102783203125,848.5714111328125
2023-10-11 16:09:55.711611,819.5604248046875,799.010986328125,786.5201416015625,833.2600708007812,917.069580078125
2023-10-11 16:09:55.721018,827.6190185546875,799.8168334960938,787.3259887695312,839.7069702148438,754.6886596679688
2023-10-11 16:09:55.733056,835.6776733398438,802.6373901367188,788.5347900390625,838.09521484375,736.1538696289062
2023-10-11 16:09:55.734272,832.8571166992188,805.4578857421875,791.7582397460938,834.8717651367188,802.2344360351562
