Timestamp,TP9,AF7,AF8,TP10,AUX
2023-10-11 16:06:43.329758,811.5018310546875,804.6520385742188,794.1758422851562,784.908447265625,872.7472534179688
2023-10-11 16:06:43.331324,815.93408203125,807.87548828125,793.7728881835938,784.1025390625,876.3735961914062
2023-10-11 16:06:43.333413,812.3076782226562,807.069580078125,794.1758422851562,781.6849975585938,761.94140625
2023-10-11 16:06:43.336858,805.4578857421875,803.040283203125,794.1758422851562,776.8497924804688,699.89013671875
2023-10-11 16:06:43.339227,809.084228515625,802.6373901367188,792.967041015625,781.2820434570312,736.5567626953125
2023-10-11 16:06:43.341276,813.91943359375,807.069580078125,792.5640869140625,787.3259887695312,795.3846435546875
2023-10-11 16:06:43.343121,799.8168334960938,803.040283203125,796.996337890625,793.7728881835938,774.029296875
2023-10-11 16:06:43.344219,780.4761962890625,799.4139404296875,801.025634765625,803.8461303710938,713.1868286132812
2023-10-11 16:06:43.345281,773.6264038085938,799.4139404296875,799.8168334960938,812.7106323242188,809.4871826171875
2023-10-11 16:06:43.346793,780.879150390625,801.8314819335938,801.8314819335938,815.5311279296875,911.4285888671875
2023-10-11 16:06:43.348808,785.3113403320312,796.1904907226562,800.6226806640625,809.89013671875,772.4176025390625
2023-10-11 16:06:43.351739,776.8497924804688,785.7142944335938,798.2051391601562,809.084228515625,736.5567626953125
2023-10-11 16:06:43.359650,781.2820434570312,789.7435913085938,797.8021850585938,806.6666870117188,787.3259887695312
2023-10-11 16:06:43.360727,790.1465454101562,791.7582397460938,798.6080322265625,803.8461303710938,777.6557006835938
2023-10-11 16:06:43.362136,794.5787353515625,792.967041015625,799.4139404296875,805.4578857421875,810.2930297851562
2023-10-11 16:06:43.371888,798.2051391601562,800.6226806640625,795.3846435546875,805.8607788085938,821.97802734375
2023-10-11 16:06:43.374092,800.6226806640625,803.4432373046875,797.8021850585938,807.4725341796875,847.3626098632812
2023-10-11 16:06:43.375695,794.981689453125,802.6373901367188,798.6080322265625,805.054931640625,889.6703491210938
2023-10-11 16:06:43.377378,790.1465454101562,802.6373901367188,803.040283203125,801.025634765625,824.7985229492188
2023-10-11 16:06:43.378799,801.4285888671875,805.054931640625,810.2930297851562,802.2344360351562,713.1868286132812
2023-10-11 16:06:43.381177,808.6813354492188,803.8461303710938,811.5018310546875,809.084228515625,902.1611938476562
2023-10-11 16:06:43.382811,805.4578857421875,798.6080322265625,811.90478515625,808.6813354492188,967.032958984375
2023-10-11 16:06:43.384861,799.4139404296875,797.8021850585938,810.2930297851562,801.025634765625,716.00732421875
2023-10-11 16:06:43.387315,795.7875366210938,796.996337890625,810.6959838867188,800.6226806640625,720.8424682617188
2023-10-11 16:06:43.397550,793.7728881835938,799.010986328125,809.4871826171875,804.2490844726562,777.2527465820312
2023-10-11 16:06:43.399255,794.981689453125,804.2490844726562,804.6520385742188,804.6520385742188,755.091552734375
2023-10-11 16:06:43.400905,801.025634765625,801.4285888671875,804.2490844726562,807.87548828125,761.1355590820312
2023-10-11 16:06:43.404732,801.8314819335938,798.6080322265625,811.5018310546875,811.5018310546875,810.2930297851562
2023-10-11 16:06:43.406948,799.010986328125,798.2051391601562,809.4871826171875,805.054931640625,781.6849975585938
2023-10-11 16:06:43.408467,806.2637329101562,797.3992919921875,807.069580078125,792.5640869140625,807.4725341796875
2023-10-11 16:06:43.412810,804.2490844726562,802.2344360351562,808.2783813476562,788.1318969726562,889.2673950195312
2023-10-11 16:06:43.414318,797.3992919921875,802.6373901367188,807.069580078125,792.5640869140625,998.4615478515625
2023-10-11 16:06:43.415756,799.010986328125,800.2197875976562,804.2490844726562,799.4139404296875,1026.6666259765625
2023-10-11 16:06:43.420855,789.3406372070312,801.025634765625,802.6373901367188,794.5787353515625,799.4139404296875
2023-10-11 16:06:43.422675,790.1465454101562,796.1904907226562,804.2490844726562,787.3259887695312,689.4139404296875
2023-10-11 16:06:43.424656,798.6080322265625,794.5787353515625,803.4432373046875,789.7435913085938,795.7875366210938
2023-10-11 16:06:43.452517,788.937744140625,801.4285888671875,805.054931640625,789.3406372070312,826.00732421875
2023-10-11 16:06:43.454830,779.6703491210938,801.025634765625,805.4578857421875,786.923095703125,734.945068359375
2023-10-11 16:06:43.456647,784.5054931640625,799.4139404296875,803.8461303710938,792.5640869140625,711.97802734375
2023-10-11 16:06:43.457607,792.967041015625,803.040283203125,805.8607788085938,794.1758422851562,719.6337280273438
2023-10-11 16:06:43.458678,790.952392578125,803.8461303710938,801.025634765625,788.1318969726562,733.3333129882812
2023-10-11 16:06:43.471794,794.1758422851562,798.2051391601562,799.8168334960938,788.1318969726562,774.8351440429688
2023-10-11 16:06:43.473224,797.3992919921875,796.996337890625,805.4578857421875,793.3699340820312,781.6849975585938
2023-10-11 16:06:43.474509,792.1611938476562,797.8021850585938,807.4725341796875,795.7875366210938,950.10986328125
2023-10-11 16:06:43.475480,787.7289428710938,799.4139404296875,805.8607788085938,787.3259887695312,989.1941528320312
2023-10-11 16:06:43.476466,789.3406372070312,804.2490844726562,803.8461303710938,785.7142944335938,734.1392211914062
2023-10-11 16:06:43.477322,800.2197875976562,802.2344360351562,808.6813354492188,800.2197875976562,759.5238037109375
2023-10-11 16:06:43.478172,806.2637329101562,801.025634765625,806.2637329101562,812.7106323242188,873.9560546875
2023-10-11 16:06:43.485496,791.7582397460938,807.069580078125,796.5933837890625,794.1758422851562,799.4139404296875
2023-10-11 16:06:43.487704,783.2966918945312,813.91943359375,796.996337890625,783.6996459960938,722.8571166992188
2023-10-11 16:06:43.488874,784.5054931640625,818.7545776367188,794.5787353515625,783.6996459960938,751.8681030273438
2023-10-11 16:06:43.489948,790.1465454101562,817.94873046875,794.1758422851562,775.6410522460938,775.2380981445312
2023-10-11 16:06:43.491006,797.8021850585938,817.5457763671875,796.5933837890625,778.05859375,794.1758422851562
2023-10-11 16:06:43.492241,790.952392578125,819.96337890625,790.5494384765625,778.05859375,840.10986328125
2023-10-11 16:06:43.493468,778.4615478515625,820.3662719726562,786.5201416015625,778.4615478515625,938.02197265625
2023-10-11 16:06:43.494895,778.8644409179688,819.96337890625,787.3259887695312,768.7911987304688,985.5677490234375
2023-10-11 16:06:43.496222,788.937744140625,822.7838745117188,787.7289428710938,765.970703125,785.7142944335938
2023-10-11 16:06:43.497369,790.5494384765625,823.5897216796875,788.1318969726562,776.0439453125,665.6410522460938
2023-10-11 16:06:43.499134,793.3699340820312,816.7399291992188,784.5054931640625,776.0439453125,814.7252807617188
2023-10-11 16:06:43.500496,792.5640869140625,814.3223266601562,785.7142944335938,784.5054931640625,838.4981689453125
2023-10-11 16:06:43.546455,793.3699340820312,812.7106323242188,792.5640869140625,788.1318969726562,704.7252807617188
2023-10-11 16:06:43.547462,797.8021850585938,809.084228515625,794.981689453125,793.3699340820312,728.4981689453125
2023-10-11 16:06:43.549319,806.6666870117188,816.3369750976562,796.1904907226562,800.6226806640625,800.6226806640625
2023-10-11 16:06:43.550889,815.5311279296875,818.3516235351562,794.1758422851562,798.2051391601562,756.7033081054688
2023-10-11 16:06:43.552985,803.040283203125,815.1282348632812,794.5787353515625,793.3699340820312,717.6190185546875
2023-10-11 16:06:43.554385,798.2051391601562,815.1282348632812,792.5640869140625,787.3259887695312,776.8497924804688
2023-10-11 16:06:43.556798,799.010986328125,812.3076782226562,792.5640869140625,799.010986328125,1008.5347900390625
2023-10-11 16:06:43.567528,801.8314819335938,811.5018310546875,795.7875366210938,803.4432373046875,1008.937744140625
2023-10-11 16:06:43.568618,806.6666870117188,811.90478515625,794.1758422851562,796.996337890625,739.7802124023438
2023-10-11 16:06:43.570321,800.6226806640625,811.90478515625,794.981689453125,803.8461303710938,720.4395751953125
2023-10-11 16:06:43.571944,793.7728881835938,809.4871826171875,796.996337890625,794.1758422851562,744.6153564453125
2023-10-11 16:06:43.573179,799.010986328125,811.098876953125,795.7875366210938,794.5787353515625,737.7655639648438
2023-10-11 16:06:43.614444,798.6080322265625,807.87548828125,796.1904907226562,803.4432373046875,736.5567626953125
2023-10-11 16:06:43.615737,781.2820434570312,800.2197875976562,797.8021850585938,805.054931640625,843.3333129882812
2023-10-11 16:06:43.617266,781.2820434570312,801.025634765625,798.6080322265625,796.5933837890625,881.2088012695312
2023-10-11 16:06:43.618993,790.952392578125,803.8461303710938,794.981689453125,791.7582397460938,739.3773193359375
2023-10-11 16:06:43.620681,792.1611938476562,801.4285888671875,792.5640869140625,800.2197875976562,688.6080322265625
2023-10-11 16:06:43.622159,792.967041015625,798.2051391601562,795.3846435546875,800.6226806640625,867.106201171875
2023-10-11 16:06:43.623227,790.5494384765625,800.2197875976562,798.2051391601562,800.2197875976562,1138.2784423828125
2023-10-11 16:06:43.624566,789.7435913085938,795.3846435546875,796.996337890625,796.996337890625,933.99267578125
2023-10-11 16:06:43.626351,795.3846435546875,791.3552856445312,794.5787353515625,790.5494384765625,689.4139404296875
2023-10-11 16:06:43.627491,800.2197875976562,796.5933837890625,796.5933837890625,801.8314819335938,791.7582397460938
2023-10-11 16:06:43.628964,799.010986328125,802.6373901367188,795.7875366210938,803.4432373046875,870.7326049804688
2023-10-11 16:06:43.632766,799.8168334960938,802.6373901367188,793.7728881835938,797.3992919921875,773.6264038085938
2023-10-11 16:06:43.644362,802.6373901367188,801.4285888671875,796.5933837890625,804.6520385742188,720.03662109375
2023-10-11 16:06:43.645631,793.7728881835938,800.6226806640625,801.025634765625,803.4432373046875,738.974365234375
2023-10-11 16:06:43.646754,791.7582397460938,801.025634765625,797.3992919921875,802.6373901367188,765.5677490234375
2023-10-11 16:06:43.648232,794.981689453125,799.010986328125,794.5787353515625,807.069580078125,765.1648559570312
2023-10-11 16:06:43.649529,795.3846435546875,796.996337890625,797.3992919921875,808.2783813476562,792.5640869140625
2023-10-11 16:06:43.651304,792.967041015625,800.2197875976562,797.8021850585938,811.90478515625,1014.1758422851562
2023-10-11 16:06:43.652778,786.923095703125,802.6373901367188,795.3846435546875,810.6959838867188,990.8058471679688
2023-10-11 16:06:43.654439,795.3846435546875,804.2490844726562,795.3846435546875,796.5933837890625,699.4871826171875
2023-10-11 16:06:43.658137,798.2051391601562,801.8314819335938,797.8021850585938,790.5494384765625,716.4102783203125
2023-10-11 16:06:43.667770,792.1611938476562,801.4285888671875,801.8314819335938,793.7728881835938,809.89013671875
2023-10-11 16:06:43.669136,788.5347900390625,800.2197875976562,801.8314819335938,790.1465454101562,752.6740112304688
2023-10-11 16:06:43.670867,782.4908447265625,797.3992919921875,796.5933837890625,792.1611938476562,673.2966918945312
2023-10-11 16:06:43.677727,785.3113403320312,794.981689453125,793.3699340820312,796.5933837890625,730.5128173828125
2023-10-11 16:06:43.678708,790.952392578125,795.3846435546875,792.967041015625,799.8168334960938,806.2637329101562
2023-10-11 16:06:43.679800,784.5054931640625,798.6080322265625,794.5787353515625,799.4139404296875,776.0439453125
2023-10-11 16:06:43.681452,791.7582397460938,799.4139404296875,800.6226806640625,799.8168334960938,722.4542236328125
2023-10-11 16:06:43.682480,805.054931640625,802.2344360351562,801.8314819335938,806.6666870117188,732.12451171875
2023-10-11 16:06:43.684152,810.6959838867188,804.2490844726562,798.2051391601562,805.8607788085938,803.040283203125
2023-10-11 16:06:43.685550,814.7252807617188,804.2490844726562,796.1904907226562,789.7435913085938,862.6740112304688
2023-10-11 16:06:43.688776,809.4871826171875,807.87548828125,794.981689453125,781.2820434570312,809.4871826171875
2023-10-11 16:06:43.690238,796.996337890625,805.054931640625,793.3699340820312,790.952392578125,850.989013671875
2023-10-11 16:06:43.691883,786.923095703125,797.3992919921875,794.5787353515625,795.7875366210938,946.4835205078125
2023-10-11 16:06:43.693950,790.1465454101562,798.2051391601562,792.5640869140625,794.1758422851562,761.5384521484375
2023-10-11 16:06:43.694928,791.3552856445312,801.8314819335938,792.967041015625,801.4285888671875,690.6226806640625
2023-10-11 16:06:43.744378,794.981689453125,799.4139404296875,794.5787353515625,803.040283203125,812.3076782226562
2023-10-11 16:06:43.745608,796.996337890625,800.2197875976562,793.3699340820312,791.7582397460938,780.0732421875
2023-10-11 16:06:43.746949,788.1318969726562,804.2490844726562,796.1904907226562,788.1318969726562,699.084228515625
2023-10-11 16:06:43.748362,792.5640869140625,805.8607788085938,799.010986328125,790.952392578125,703.91943359375
2023-10-11 16:06:43.749691,798.6080322265625,803.8461303710938,798.2051391601562,791.3552856445312,763.5531005859375
2023-10-11 16:06:43.751130,797.3992919921875,805.054931640625,802.2344360351562,786.923095703125,868.3150024414062
2023-10-11 16:06:43.752469,794.1758422851562,804.2490844726562,803.040283203125,786.5201416015625,834.06591796875
2023-10-11 16:06:43.753862,791.7582397460938,800.2197875976562,795.3846435546875,788.937744140625,734.1392211914062
2023-10-11 16:06:43.755441,796.5933837890625,802.2344360351562,797.3992919921875,794.981689453125,844.945068359375
2023-10-11 16:06:43.756844,796.996337890625,802.2344360351562,799.8168334960938,796.1904907226562,947.6923217773438
2023-10-11 16:06:43.758292,802.6373901367188,800.6226806640625,799.010986328125,786.1171875,830.03662109375
2023-10-11 16:06:43.767378,804.2490844726562,802.2344360351562,801.4285888671875,788.1318969726562,785.3113403320312
2023-10-11 16:06:43.784110,799.8168334960938,801.4285888671875,806.2637329101562,792.967041015625,806.6666870117188
2023-10-11 16:06:43.785169,795.3846435546875,801.4285888671875,806.6666870117188,778.4615478515625,752.6740112304688
2023-10-11 16:06:43.786380,784.908447265625,799.010986328125,801.8314819335938,783.2966918945312,718.02197265625
2023-10-11 16:06:43.787696,776.4468994140625,797.3992919921875,803.040283203125,801.4285888671875,786.1171875
2023-10-11 16:06:43.789402,780.4761962890625,794.5787353515625,804.2490844726562,803.4432373046875,796.996337890625
2023-10-11 16:06:43.790568,784.1025390625,788.1318969726562,803.8461303710938,804.2490844726562,784.1025390625
2023-10-11 16:06:43.793348,787.7289428710938,791.7582397460938,805.4578857421875,795.7875366210938,829.6337280273438
2023-10-11 16:06:43.794908,793.3699340820312,792.5640869140625,799.010986328125,790.952392578125,880.8058471679688
2023-10-11 16:06:43.796241,789.3406372070312,794.981689453125,797.8021850585938,798.2051391601562,976.3003540039062
2023-10-11 16:06:43.797887,784.5054931640625,801.8314819335938,801.8314819335938,794.1758422851562,840.10986328125
2023-10-11 16:06:43.798961,785.3113403320312,802.2344360351562,801.4285888671875,786.1171875,701.90478515625
2023-10-11 16:06:43.800368,788.5347900390625,802.2344360351562,807.87548828125,789.7435913085938,758.3150024414062
2023-10-11 16:06:43.844130,796.1904907226562,801.4285888671875,807.4725341796875,794.5787353515625,795.3846435546875
2023-10-11 16:06:43.848478,810.6959838867188,803.8461303710938,799.010986328125,795.3846435546875,801.4285888671875
2023-10-11 16:06:43.850678,802.6373901367188,800.2197875976562,796.5933837890625,794.981689453125,785.7142944335938
2023-10-11 16:06:43.853035,782.4908447265625,796.996337890625,797.3992919921875,797.3992919921875,819.1575317382812
2023-10-11 16:06:43.854929,783.2966918945312,800.2197875976562,800.2197875976562,799.8168334960938,779.6703491210938
2023-10-11 16:06:43.856521,793.7728881835938,801.025634765625,804.2490844726562,809.4871826171875,774.8351440429688
2023-10-11 16:06:43.857684,797.8021850585938,797.8021850585938,800.6226806640625,814.3223266601562,862.6740112304688
2023-10-11 16:06:43.858795,800.6226806640625,798.6080322265625,797.3992919921875,813.113525390625,954.5421142578125
2023-10-11 16:06:43.860222,799.4139404296875,799.8168334960938,800.6226806640625,809.084228515625,931.5750732421875
2023-10-11 16:06:43.861955,790.5494384765625,798.6080322265625,803.040283203125,798.2051391601562,727.6923217773438
2023-10-11 16:06:43.863420,792.967041015625,799.4139404296875,800.2197875976562,800.6226806640625,732.5274658203125
2023-10-11 16:06:43.864956,799.8168334960938,804.2490844726562,792.967041015625,794.5787353515625,805.054931640625
2023-10-11 16:06:43.876771,794.5787353515625,801.4285888671875,788.937744140625,787.3259887695312,787.3259887695312
2023-10-11 16:06:43.891111,788.937744140625,791.7582397460938,793.3699340820312,786.5201416015625,732.930419921875
2023-10-11 16:06:43.892339,796.1904907226562,792.5640869140625,796.996337890625,782.087890625,740.989013671875
2023-10-11 16:06:43.894350,808.6813354492188,800.2197875976562,797.3992919921875,787.3259887695312,817.5457763671875
2023-10-11 16:06:43.895613,806.6666870117188,798.2051391601562,802.2344360351562,792.1611938476562,812.3076782226562
2023-10-11 16:06:43.896920,792.1611938476562,792.967041015625,808.6813354492188,785.3113403320312,805.054931640625
2023-10-11 16:06:43.898508,788.5347900390625,792.1611938476562,812.7106323242188,788.1318969726562,875.970703125
2023-10-11 16:06:43.904963,790.1465454101562,792.5640869140625,812.3076782226562,803.4432373046875,958.5714111328125
2023-10-11 16:06:43.906407,791.3552856445312,790.1465454101562,807.4725341796875,796.5933837890625,819.5604248046875
2023-10-11 16:06:43.907875,799.010986328125,786.1171875,801.8314819335938,786.1171875,725.2747192382812
2023-10-11 16:06:43.909257,795.7875366210938,786.923095703125,803.8461303710938,791.3552856445312,838.4981689453125
2023-10-11 16:06:43.912234,796.5933837890625,785.3113403320312,807.069580078125,803.4432373046875,841.3186645507812
2023-10-11 16:06:43.943721,799.4139404296875,783.6996459960938,806.2637329101562,808.2783813476562,736.1538696289062
2023-10-11 16:06:43.945461,798.6080322265625,786.923095703125,808.2783813476562,808.2783813476562,746.6300659179688
2023-10-11 16:06:43.946915,803.040283203125,786.5201416015625,807.4725341796875,801.8314819335938,788.937744140625
2023-10-11 16:06:43.948809,804.6520385742188,784.5054931640625,803.4432373046875,794.981689453125,803.8461303710938
2023-10-11 16:06:43.950201,803.040283203125,786.5201416015625,802.2344360351562,801.4285888671875,754.6886596679688
2023-10-11 16:06:43.951840,796.996337890625,788.937744140625,805.4578857421875,807.4725341796875,747.032958984375
2023-10-11 16:06:43.953646,790.5494384765625,787.7289428710938,811.5018310546875,815.93408203125,943.6630249023438
2023-10-11 16:06:43.955130,794.5787353515625,785.7142944335938,808.2783813476562,814.3223266601562,1021.4285888671875
2023-10-11 16:06:43.957256,799.010986328125,786.1171875,803.4432373046875,802.6373901367188,836.4835205078125
2023-10-11 16:06:43.959052,807.069580078125,785.3113403320312,803.8461303710938,796.996337890625,750.2564086914062
2023-10-11 16:06:43.960808,808.6813354492188,786.923095703125,802.6373901367188,796.5933837890625,814.3223266601562
2023-10-11 16:06:43.963026,807.4725341796875,790.5494384765625,799.8168334960938,790.5494384765625,758.3150024414062
2023-10-11 16:06:43.976115,814.3223266601562,786.1171875,799.010986328125,778.8644409179688,671.2820434570312
2023-10-11 16:06:43.977645,810.6959838867188,789.7435913085938,799.8168334960938,785.3113403320312,742.6007080078125
2023-10-11 16:06:43.979053,801.8314819335938,793.7728881835938,805.4578857421875,802.6373901367188,765.5677490234375
2023-10-11 16:06:43.990842,797.3992919921875,794.1758422851562,807.069580078125,809.4871826171875,716.00732421875
2023-10-11 16:06:43.992625,788.937744140625,798.6080322265625,811.098876953125,820.3662719726562,665.6410522460938
2023-10-11 16:06:43.993749,784.1025390625,790.5494384765625,813.5164794921875,830.8424682617188,815.1282348632812
2023-10-11 16:06:43.995202,785.7142944335938,781.2820434570312,804.6520385742188,831.2454223632812,976.7033081054688
2023-10-11 16:06:43.997269,788.937744140625,786.923095703125,803.4432373046875,818.3516235351562,810.6959838867188
2023-10-11 16:06:43.998520,789.3406372070312,792.1611938476562,807.87548828125,791.3552856445312,711.5750732421875
2023-10-11 16:06:44.002912,790.1465454101562,791.3552856445312,807.87548828125,781.2820434570312,839.7069702148438
2023-10-11 16:06:44.004133,797.8021850585938,793.3699340820312,803.4432373046875,784.908447265625,916.6666870117188
2023-10-11 16:06:44.005945,805.8607788085938,796.1904907226562,805.054931640625,789.3406372070312,769.1941528320312
2023-10-11 16:06:44.022606,805.8607788085938,796.5933837890625,806.6666870117188,786.923095703125,726.4835205078125
2023-10-11 16:06:44.024288,803.4432373046875,798.6080322265625,806.2637329101562,778.8644409179688,729.7069702148438
2023-10-11 16:06:44.026075,798.2051391601562,800.6226806640625,805.4578857421875,780.4761962890625,718.8278198242188
2023-10-11 16:06:44.027754,802.6373901367188,802.2344360351562,803.4432373046875,792.5640869140625,724.4688720703125
2023-10-11 16:06:44.036271,811.098876953125,805.4578857421875,799.010986328125,798.2051391601562,737.7655639648438
2023-10-11 16:06:44.039417,805.8607788085938,808.2783813476562,797.8021850585938,803.040283203125,904.981689453125
2023-10-11 16:06:44.044622,793.3699340820312,807.87548828125,797.8021850585938,801.4285888671875,919.4871826171875
2023-10-11 16:06:44.048318,792.5640869140625,803.040283203125,792.5640869140625,789.7435913085938,747.8388061523438
2023-10-11 16:06:44.053762,788.937744140625,799.4139404296875,794.981689453125,794.981689453125,721.6483764648438
2023-10-11 16:06:44.055773,792.1611938476562,805.4578857421875,794.1758422851562,802.6373901367188,886.0439453125
2023-10-11 16:06:44.057867,797.3992919921875,807.87548828125,788.5347900390625,793.3699340820312,862.6740112304688
2023-10-11 16:06:44.059180,791.3552856445312,804.2490844726562,794.5787353515625,792.967041015625,751.8681030273438
2023-10-11 16:06:44.067899,788.1318969726562,807.87548828125,801.025634765625,794.5787353515625,796.996337890625
2023-10-11 16:06:44.069494,787.7289428710938,809.89013671875,799.8168334960938,794.1758422851562,820.7692260742188
2023-10-11 16:06:44.071108,793.3699340820312,805.8607788085938,795.7875366210938,794.1758422851562,790.1465454101562
2023-10-11 16:06:44.072355,803.4432373046875,811.098876953125,796.1904907226562,794.981689453125,768.7911987304688
2023-10-11 16:06:44.073698,795.7875366210938,817.94873046875,803.8461303710938,804.6520385742188,796.996337890625
2023-10-11 16:06:44.084310,788.1318969726562,819.1575317382812,806.2637329101562,807.4725341796875,807.4725341796875
2023-10-11 16:06:44.085422,793.7728881835938,817.1428833007812,800.6226806640625,804.2490844726562,780.0732421875
2023-10-11 16:06:44.086662,794.1758422851562,815.1282348632812,800.2197875976562,801.8314819335938,730.10986328125
2023-10-11 16:06:44.087729,798.6080322265625,817.5457763671875,802.2344360351562,795.7875366210938,842.930419921875
2023-10-11 16:06:44.088828,803.8461303710938,814.7252807617188,799.4139404296875,803.040283203125,994.8351440429688
2023-10-11 16:06:44.089937,798.2051391601562,815.5311279296875,796.996337890625,809.89013671875,815.5311279296875
2023-10-11 16:06:44.091081,802.2344360351562,817.1428833007812,793.3699340820312,800.6226806640625,709.1575317382812
2023-10-11 16:06:44.110471,810.2930297851562,820.3662719726562,793.3699340820312,800.6226806640625,776.8497924804688
2023-10-11 16:06:44.112092,818.3516235351562,823.1868286132812,798.6080322265625,809.89013671875,785.3113403320312
2023-10-11 16:06:44.113470,826.00732421875,816.3369750976562,801.025634765625,802.2344360351562,781.6849975585938
2023-10-11 16:06:44.114670,818.7545776367188,817.94873046875,800.6226806640625,797.3992919921875,757.106201171875
2023-10-11 16:06:44.116321,805.8607788085938,822.3809814453125,800.6226806640625,798.6080322265625,768.7911987304688
2023-10-11 16:06:44.117966,809.4871826171875,821.1721801757812,804.2490844726562,798.2051391601562,875.1648559570312
2023-10-11 16:06:44.120330,811.5018310546875,820.3662719726562,805.054931640625,801.4285888671875,871.94140625
2023-10-11 16:06:44.121774,802.2344360351562,818.7545776367188,804.6520385742188,807.069580078125,747.8388061523438
2023-10-11 16:06:44.122919,795.7875366210938,815.93408203125,805.8607788085938,808.6813354492188,823.1868286132812
2023-10-11 16:06:44.124439,796.1904907226562,818.7545776367188,801.8314819335938,808.2783813476562,830.03662109375
2023-10-11 16:06:44.125819,812.3076782226562,822.3809814453125,797.8021850585938,820.3662719726562,689.010986328125
2023-10-11 16:06:44.126894,818.7545776367188,817.94873046875,806.6666870117188,828.8278198242188,755.4945068359375
2023-10-11 16:06:44.143339,795.7875366210938,807.87548828125,813.113525390625,811.90478515625,806.2637329101562
2023-10-11 16:06:44.144750,785.7142944335938,806.2637329101562,809.084228515625,794.1758422851562,754.2857055664062
2023-10-11 16:06:44.146710,800.6226806640625,807.069580078125,807.87548828125,800.6226806640625,677.7289428710938
2023-10-11 16:06:44.149143,800.2197875976562,804.2490844726562,811.5018310546875,801.4285888671875,754.2857055664062
2023-10-11 16:06:44.150619,780.4761962890625,794.5787353515625,807.87548828125,794.981689453125,848.974365234375
2023-10-11 16:06:44.155699,776.4468994140625,790.1465454101562,804.2490844726562,799.4139404296875,859.8534545898438
2023-10-11 16:06:44.157286,788.5347900390625,790.1465454101562,805.8607788085938,807.87548828125,790.952392578125
2023-10-11 16:06:44.167125,787.7289428710938,788.937744140625,805.8607788085938,809.89013671875,814.7252807617188
2023-10-11 16:06:44.168506,788.5347900390625,789.3406372070312,803.040283203125,797.3992919921875,936.00732421875
2023-10-11 16:06:44.170074,794.1758422851562,788.937744140625,800.6226806640625,787.3259887695312,837.2893676757812
2023-10-11 16:06:44.171276,788.937744140625,787.7289428710938,803.4432373046875,788.5347900390625,747.4359130859375
2023-10-11 16:06:44.172711,790.1465454101562,788.5347900390625,804.2490844726562,785.7142944335938,823.1868286132812
2023-10-11 16:06:44.209521,789.3406372070312,788.937744140625,801.8314819335938,789.7435913085938,814.3223266601562
2023-10-11 16:06:44.210746,789.7435913085938,790.952392578125,800.6226806640625,793.3699340820312,733.7362670898438
2023-10-11 16:06:44.212116,794.981689453125,794.5787353515625,799.4139404296875,794.981689453125,759.5238037109375
2023-10-11 16:06:44.213290,792.1611938476562,792.967041015625,797.8021850585938,796.1904907226562,811.098876953125
2023-10-11 16:06:44.217504,790.5494384765625,796.1904907226562,798.6080322265625,803.040283203125,794.1758422851562
2023-10-11 16:06:44.221563,797.8021850585938,799.010986328125,799.010986328125,806.2637329101562,766.7765502929688
2023-10-11 16:06:44.225566,793.7728881835938,794.1758422851562,796.996337890625,802.6373901367188,809.4871826171875
2023-10-11 16:06:44.227617,784.908447265625,795.3846435546875,796.996337890625,804.6520385742188,977.5091552734375
2023-10-11 16:06:44.229812,786.1171875,795.7875366210938,798.6080322265625,803.4432373046875,1019.4139404296875
2023-10-11 16:06:44.231564,780.879150390625,793.3699340820312,796.996337890625,805.4578857421875,786.5201416015625
2023-10-11 16:06:44.233557,774.8351440429688,797.3992919921875,795.7875366210938,808.2783813476562,711.5750732421875
2023-10-11 16:06:44.235213,778.4615478515625,798.2051391601562,796.5933837890625,801.8314819335938,796.5933837890625
2023-10-11 16:06:44.250826,784.908447265625,794.1758422851562,799.4139404296875,807.069580078125,801.025634765625
2023-10-11 16:06:44.252429,790.1465454101562,794.5787353515625,803.4432373046875,818.3516235351562,769.5970458984375
2023-10-11 16:06:44.254619,793.7728881835938,796.5933837890625,802.2344360351562,822.7838745117188,805.054931640625
2023-10-11 16:06:44.256215,796.1904907226562,796.996337890625,798.2051391601562,819.5604248046875,759.5238037109375
2023-10-11 16:06:44.257546,800.6226806640625,793.3699340820312,798.2051391601562,805.8607788085938,707.1428833007812
2023-10-11 16:06:44.259232,803.040283203125,790.1465454101562,798.2051391601562,791.7582397460938,778.4615478515625
2023-10-11 16:06:44.260833,799.010986328125,792.967041015625,797.3992919921875,787.3259887695312,971.062255859375
2023-10-11 16:06:44.264715,792.967041015625,795.7875366210938,796.5933837890625,790.5494384765625,1039.96337890625
2023-10-11 16:06:44.266167,796.5933837890625,798.2051391601562,796.5933837890625,786.5201416015625,804.2490844726562
2023-10-11 16:06:44.276424,798.6080322265625,799.4139404296875,796.996337890625,787.3259887695312,682.1611938476562
2023-10-11 16:06:44.277950,805.8607788085938,799.4139404296875,796.5933837890625,792.5640869140625,805.8607788085938
2023-10-11 16:06:44.281967,815.5311279296875,796.996337890625,795.3846435546875,798.6080322265625,876.3735961914062
2023-10-11 16:06:44.312199,817.94873046875,797.8021850585938,794.981689453125,798.6080322265625,766.3735961914062
2023-10-11 16:06:44.316296,814.7252807617188,799.4139404296875,793.3699340820312,794.5787353515625,710.7692260742188
2023-10-11 16:06:44.318015,811.098876953125,790.1465454101562,796.5933837890625,805.4578857421875,785.7142944335938
2023-10-11 16:06:44.319771,807.87548828125,783.2966918945312,796.996337890625,815.93408203125,824.3956298828125
2023-10-11 16:06:44.322073,805.054931640625,789.3406372070312,789.3406372070312,815.93408203125,787.7289428710938
2023-10-11 16:06:44.323998,804.2490844726562,794.5787353515625,788.5347900390625,823.99267578125,786.923095703125
2023-10-11 16:06:44.325514,799.4139404296875,792.967041015625,794.1758422851562,838.09521484375,950.5128173828125
2023-10-11 16:06:44.326965,802.6373901367188,790.952392578125,792.5640869140625,840.10986328125,965.8241577148438
2023-10-11 16:06:44.328649,809.084228515625,785.7142944335938,784.1025390625,824.3956298828125,728.09521484375
2023-10-11 16:06:44.330092,811.5018310546875,780.4761962890625,787.3259887695312,816.7399291992188,776.0439453125
2023-10-11 16:06:44.331714,811.5018310546875,781.2820434570312,800.6226806640625,813.5164794921875,830.8424682617188
2023-10-11 16:06:44.333177,802.2344360351562,782.087890625,806.2637329101562,799.8168334960938,749.047607421875
2023-10-11 16:06:44.350227,800.2197875976562,783.2966918945312,804.2490844726562,793.3699340820312,665.2380981445312
2023-10-11 16:06:44.351493,813.5164794921875,787.7289428710938,800.2197875976562,795.7875366210938,716.4102783203125
2023-10-11 16:06:44.353057,827.6190185546875,790.1465454101562,801.025634765625,810.2930297851562,833.6630249023438
2023-10-11 16:06:44.354259,821.97802734375,795.3846435546875,801.8314819335938,822.3809814453125,778.4615478515625
2023-10-11 16:06:44.355734,798.6080322265625,799.010986328125,804.2490844726562,810.2930297851562,702.3076782226562
2023-10-11 16:06:44.357713,775.2380981445312,795.3846435546875,803.4432373046875,783.6996459960938,828.02197265625
2023-10-11 16:06:44.359349,757.912109375,785.7142944335938,799.8168334960938,762.3442993164062,1012.1611938476562
2023-10-11 16:06:44.361089,756.7033081054688,777.6557006835938,795.7875366210938,753.076904296875,878.3883056640625
2023-10-11 16:06:44.362846,740.5860595703125,778.8644409179688,791.7582397460938,739.7802124023438,758.7179565429688
2023-10-11 16:06:44.364573,724.06591796875,783.6996459960938,792.5640869140625,736.1538696289062,824.3956298828125
2023-10-11 16:06:44.366864,736.959716796875,790.1465454101562,794.981689453125,729.7069702148438,769.5970458984375
2023-10-11 16:06:44.381226,731.3186645507812,785.3113403320312,790.5494384765625,715.2014770507812,676.5201416015625
2023-10-11 16:06:44.404330,720.8424682617188,787.7289428710938,782.087890625,717.2161254882812,770.0
2023-10-11 16:06:44.405724,704.3223266601562,789.7435913085938,785.3113403320312,714.7985229492188,819.1575317382812
2023-10-11 16:06:44.407871,682.5640869140625,783.2966918945312,794.1758422851562,705.93408203125,778.4615478515625
2023-10-11 16:06:44.409783,688.2051391601562,783.6996459960938,794.1758422851562,699.89013671875,705.1282348632812
2023-10-11 16:06:44.411178,691.4285888671875,788.937744140625,776.8497924804688,703.113525390625,716.4102783203125
2023-10-11 16:06:44.412568,700.2930297851562,788.1318969726562,775.2380981445312,711.1721801757812,1025.054931640625
2023-10-11 16:06:44.415075,706.7399291992188,783.6996459960938,787.7289428710938,713.99267578125,1136.6666259765625
2023-10-11 16:06:44.417194,709.5604248046875,787.7289428710938,785.3113403320312,705.5311279296875,828.8278198242188
2023-10-11 16:06:44.420486,724.4688720703125,796.5933837890625,792.5640869140625,715.2014770507812,713.1868286132812
2023-10-11 16:06:44.423596,742.6007080078125,801.025634765625,799.8168334960938,740.1831665039062,758.3150024414062
2023-10-11 16:06:44.424746,759.9267578125,800.2197875976562,798.2051391601562,753.4798583984375,782.893798828125
2023-10-11 16:06:44.426116,764.3589477539062,800.2197875976562,794.1758422851562,751.062255859375,761.5384521484375
2023-10-11 16:06:44.435132,765.970703125,798.2051391601562,791.3552856445312,751.4652099609375,753.076904296875
2023-10-11 16:06:44.436344,772.0146484375,794.1758422851562,788.5347900390625,764.3589477539062,706.3369750976562
2023-10-11 16:06:44.437435,772.4176025390625,792.1611938476562,792.1611938476562,774.029296875,662.0146484375
2023-10-11 16:06:44.438468,782.4908447265625,788.1318969726562,799.8168334960938,786.5201416015625,694.6520385742188
2023-10-11 16:06:44.439392,795.3846435546875,786.923095703125,804.2490844726562,794.981689453125,778.4615478515625
2023-10-11 16:06:44.440348,796.5933837890625,791.7582397460938,801.8314819335938,790.5494384765625,892.893798828125
2023-10-11 16:06:44.441322,800.2197875976562,793.7728881835938,797.3992919921875,771.6116943359375,816.7399291992188
2023-10-11 16:06:44.442353,797.8021850585938,791.7582397460938,797.8021850585938,762.7472534179688,751.062255859375
2023-10-11 16:06:44.443451,801.025634765625,791.7582397460938,803.040283203125,781.2820434570312,883.6264038085938
2023-10-11 16:06:44.444463,809.4871826171875,795.7875366210938,801.025634765625,796.1904907226562,1002.4908447265625
2023-10-11 16:06:44.445439,806.6666870117188,798.6080322265625,795.7875366210938,799.010986328125,851.7948608398438
2023-10-11 16:06:44.446417,806.6666870117188,792.5640869140625,803.8461303710938,799.4139404296875,695.4578857421875
2023-10-11 16:06:44.494796,807.4725341796875,789.3406372070312,803.040283203125,801.4285888671875,765.5677490234375
2023-10-11 16:06:44.503540,804.2490844726562,788.1318969726562,791.3552856445312,796.5933837890625,802.6373901367188
2023-10-11 16:06:44.505389,807.069580078125,784.908447265625,796.1904907226562,794.1758422851562,747.8388061523438
2023-10-11 16:06:44.507012,807.4725341796875,793.3699340820312,805.054931640625,807.4725341796875,767.9853515625
2023-10-11 16:06:44.508752,803.4432373046875,800.2197875976562,810.2930297851562,808.6813354492188,770.0
2023-10-11 16:06:44.510283,800.6226806640625,796.996337890625,808.6813354492188,805.8607788085938,777.6557006835938
2023-10-11 16:06:44.512323,805.054931640625,795.3846435546875,812.7106323242188,813.91943359375,791.3552856445312
2023-10-11 16:06:44.513631,816.7399291992188,789.3406372070312,811.5018310546875,817.1428833007812,781.6849975585938
2023-10-11 16:06:44.515116,812.7106323242188,786.1171875,799.4139404296875,819.1575317382812,929.1575317382812
2023-10-11 16:06:44.516863,801.8314819335938,790.5494384765625,802.6373901367188,820.3662719726562,931.97802734375
2023-10-11 16:06:44.518654,800.2197875976562,786.923095703125,809.4871826171875,810.2930297851562,716.00732421875
2023-10-11 16:06:44.520029,794.981689453125,780.879150390625,805.8607788085938,805.054931640625,719.6337280273438
2023-10-11 16:06:44.533908,793.3699340820312,777.2527465820312,800.2197875976562,813.91943359375,838.09521484375
2023-10-11 16:06:44.535242,800.6226806640625,782.087890625,800.2197875976562,806.6666870117188,805.054931640625
2023-10-11 16:06:44.536680,805.054931640625,786.923095703125,806.2637329101562,804.6520385742188,727.6923217773438
2023-10-11 16:06:44.537795,807.87548828125,789.7435913085938,813.113525390625,819.5604248046875,742.1978149414062
2023-10-11 16:06:44.539236,807.87548828125,795.3846435546875,811.098876953125,815.5311279296875,782.893798828125
2023-10-11 16:06:44.542142,803.4432373046875,790.5494384765625,803.8461303710938,794.1758422851562,869.5238037109375
2023-10-11 16:06:44.543527,801.8314819335938,783.6996459960938,794.981689453125,781.2820434570312,877.9853515625
2023-10-11 16:06:44.545096,797.8021850585938,784.1025390625,793.3699340820312,789.3406372070312,853.4066162109375
2023-10-11 16:06:44.546453,793.7728881835938,787.3259887695312,788.937744140625,799.010986328125,911.4285888671875
2023-10-11 16:06:44.547890,790.1465454101562,789.3406372070312,784.1025390625,793.3699340820312,758.7179565429688
2023-10-11 16:06:44.549638,784.1025390625,784.908447265625,788.937744140625,790.5494384765625,722.8571166992188
2023-10-11 16:06:44.551361,800.2197875976562,783.6996459960938,791.3552856445312,794.1758422851562,807.069580078125
2023-10-11 16:06:44.593006,813.5164794921875,791.7582397460938,800.2197875976562,800.2197875976562,820.3662719726562
2023-10-11 16:06:44.594054,809.89013671875,794.5787353515625,806.6666870117188,791.3552856445312,752.2710571289062
2023-10-11 16:06:44.595504,797.3992919921875,796.5933837890625,800.2197875976562,782.087890625,678.1318969726562
2023-10-11 16:06:44.604500,801.4285888671875,800.6226806640625,795.3846435546875,793.7728881835938,802.2344360351562
2023-10-11 16:06:44.606197,817.5457763671875,802.2344360351562,796.996337890625,797.3992919921875,875.1648559570312
2023-10-11 16:06:44.607773,824.7985229492188,803.4432373046875,796.996337890625,801.4285888671875,821.97802734375
2023-10-11 16:06:44.609417,835.2747192382812,804.2490844726562,796.5933837890625,813.91943359375,781.6849975585938
2023-10-11 16:06:44.610964,838.09521484375,795.7875366210938,790.952392578125,803.8461303710938,881.6116943359375
2023-10-11 16:06:44.612123,836.4835205078125,787.3259887695312,787.3259887695312,789.3406372070312,898.937744140625
2023-10-11 16:06:44.613768,827.2161254882812,796.1904907226562,792.5640869140625,794.1758422851562,752.6740112304688
2023-10-11 16:06:44.616644,809.4871826171875,808.6813354492188,788.5347900390625,809.4871826171875,723.2600708007812
2023-10-11 16:06:44.619380,799.8168334960938,813.113525390625,789.7435913085938,820.7692260742188,705.5311279296875
2023-10-11 16:06:44.627230,803.8461303710938,810.6959838867188,805.4578857421875,831.6483764648438,695.4578857421875
2023-10-11 16:06:44.628532,806.2637329101562,801.8314819335938,809.4871826171875,827.2161254882812,728.901123046875
2023-10-11 16:06:44.629623,792.967041015625,796.5933837890625,798.6080322265625,803.040283203125,784.908447265625
2023-10-11 16:06:44.632954,783.6996459960938,792.5640869140625,786.923095703125,787.7289428710938,881.2088012695312
2023-10-11 16:06:44.634921,786.923095703125,797.3992919921875,793.3699340820312,789.7435913085938,829.2307739257812
2023-10-11 16:06:44.637136,792.5640869140625,805.8607788085938,802.2344360351562,796.1904907226562,754.6886596679688
2023-10-11 16:06:44.639069,804.2490844726562,799.010986328125,787.3259887695312,794.5787353515625,888.8644409179688
2023-10-11 16:06:44.640373,812.3076782226562,790.5494384765625,787.3259887695312,796.996337890625,1062.12451171875
2023-10-11 16:06:44.641595,804.6520385742188,790.5494384765625,799.4139404296875,794.981689453125,902.967041015625
2023-10-11 16:06:44.642725,793.7728881835938,791.3552856445312,796.996337890625,795.3846435546875,700.6959838867188
2023-10-11 16:06:44.643871,798.2051391601562,782.087890625,795.7875366210938,799.010986328125,770.0
2023-10-11 16:06:44.645079,787.7289428710938,782.4908447265625,794.981689453125,800.6226806640625,830.03662109375
2023-10-11 16:06:44.694751,776.4468994140625,790.1465454101562,799.010986328125,809.89013671875,769.5970458984375
2023-10-11 16:06:44.696157,789.7435913085938,790.5494384765625,797.3992919921875,810.2930297851562,742.1978149414062
2023-10-11 16:06:44.697320,788.1318969726562,791.3552856445312,799.4139404296875,806.6666870117188,716.00732421875
2023-10-11 16:06:44.698445,776.8497924804688,794.5787353515625,800.2197875976562,811.098876953125,731.7216186523438
2023-10-11 16:06:44.699803,782.087890625,799.8168334960938,794.5787353515625,812.7106323242188,750.6593627929688
2023-10-11 16:06:44.708376,788.5347900390625,790.952392578125,796.5933837890625,813.91943359375,828.4249267578125
2023-10-11 16:06:44.709828,798.6080322265625,787.3259887695312,799.4139404296875,822.3809814453125,1033.91943359375
2023-10-11 16:06:44.711624,800.6226806640625,794.1758422851562,797.8021850585938,822.7838745117188,1003.6996459960938
2023-10-11 16:06:44.712901,798.6080322265625,790.5494384765625,803.8461303710938,805.054931640625,700.2930297851562
2023-10-11 16:06:44.714599,805.054931640625,789.7435913085938,805.4578857421875,789.3406372070312,668.8644409179688
2023-10-11 16:06:44.716069,813.91943359375,793.7728881835938,807.87548828125,790.5494384765625,790.1465454101562
2023-10-11 16:06:44.717766,811.90478515625,790.1465454101562,811.098876953125,790.1465454101562,800.6226806640625
2023-10-11 16:06:44.727676,805.054931640625,784.908447265625,807.4725341796875,780.4761962890625,705.1282348632812
2023-10-11 16:06:44.728784,805.4578857421875,788.1318969726562,806.6666870117188,778.05859375,689.010986328125
2023-10-11 16:06:44.729722,796.996337890625,790.952392578125,800.6226806640625,781.2820434570312,722.4542236328125
2023-10-11 16:06:44.731133,788.1318969726562,787.3259887695312,801.025634765625,794.1758422851562,749.4505615234375
2023-10-11 16:06:44.732736,787.7289428710938,784.5054931640625,806.6666870117188,793.3699340820312,761.5384521484375
2023-10-11 16:06:44.734315,785.3113403320312,786.923095703125,799.010986328125,788.937744140625,888.4615478515625
2023-10-11 16:06:44.735995,782.893798828125,790.5494384765625,799.8168334960938,796.5933837890625,967.4359130859375
2023-10-11 16:06:44.738817,785.7142944335938,793.3699340820312,801.4285888671875,800.6226806640625,748.2417602539062
2023-10-11 16:06:44.740432,787.7289428710938,792.1611938476562,790.952392578125,801.8314819335938,699.89013671875
2023-10-11 16:06:44.741979,790.5494384765625,795.3846435546875,791.7582397460938,805.054931640625,890.4761962890625
2023-10-11 16:06:44.744152,802.6373901367188,797.8021850585938,790.5494384765625,817.5457763671875,943.2600708007812
2023-10-11 16:06:44.745801,803.040283203125,795.3846435546875,790.952392578125,822.3809814453125,733.7362670898438
2023-10-11 16:06:44.760515,780.4761962890625,787.7289428710938,802.2344360351562,796.1904907226562,686.996337890625
2023-10-11 16:06:44.761691,779.2673950195312,788.5347900390625,800.6226806640625,788.1318969726562,793.3699340820312
2023-10-11 16:06:44.762813,796.5933837890625,792.967041015625,801.025634765625,788.937744140625,817.94873046875
2023-10-11 16:06:44.766384,783.2966918945312,789.3406372070312,805.4578857421875,784.5054931640625,747.032958984375
2023-10-11 16:06:44.768688,769.5970458984375,787.7289428710938,811.098876953125,785.3113403320312,704.3223266601562
2023-10-11 16:06:44.770890,781.2820434570312,788.1318969726562,812.3076782226562,789.3406372070312,816.3369750976562
2023-10-11 16:06:44.773410,786.923095703125,784.908447265625,807.87548828125,792.1611938476562,874.7619018554688
2023-10-11 16:06:44.782681,782.087890625,784.5054931640625,806.6666870117188,791.3552856445312,816.3369750976562
2023-10-11 16:06:44.784292,788.1318969726562,791.7582397460938,808.6813354492188,799.8168334960938,746.2271118164062
2023-10-11 16:06:44.785840,799.010986328125,792.967041015625,811.90478515625,803.8461303710938,827.2161254882812
2023-10-11 16:06:44.787350,796.996337890625,791.3552856445312,807.87548828125,807.069580078125,795.7875366210938
2023-10-11 16:06:44.789033,794.1758422851562,790.1465454101562,799.8168334960938,808.6813354492188,738.1685180664062
2023-10-11 16:06:44.827856,794.981689453125,790.952392578125,796.996337890625,808.6813354492188,882.0146484375
2023-10-11 16:06:44.829489,791.7582397460938,794.5787353515625,796.5933837890625,810.6959838867188,869.120849609375
2023-10-11 16:06:44.831463,789.3406372070312,797.8021850585938,794.1758422851562,800.6226806640625,740.989013671875
2023-10-11 16:06:44.833262,794.5787353515625,796.1904907226562,796.996337890625,801.025634765625,660.4029541015625
2023-10-11 16:06:44.834962,807.4725341796875,788.5347900390625,803.4432373046875,821.97802734375,768.7911987304688
2023-10-11 16:06:44.837084,815.5311279296875,790.1465454101562,803.4432373046875,823.5897216796875,980.3296508789062
2023-10-11 16:06:44.839893,805.4578857421875,799.010986328125,803.8461303710938,810.6959838867188,954.1392211914062
2023-10-11 16:06:44.841549,792.1611938476562,799.4139404296875,808.2783813476562,810.6959838867188,766.3735961914062
2023-10-11 16:06:44.843308,794.1758422851562,796.1904907226562,807.87548828125,819.96337890625,783.2966918945312
2023-10-11 16:06:44.845917,798.6080322265625,793.3699340820312,799.010986328125,828.8278198242188,935.2014770507812
2023-10-11 16:06:44.847467,800.6226806640625,792.967041015625,802.2344360351562,819.96337890625,838.4981689453125
2023-10-11 16:06:44.852752,804.2490844726562,795.7875366210938,813.5164794921875,815.5311279296875,767.5823974609375
2023-10-11 16:06:44.861239,801.025634765625,796.996337890625,820.3662719726562,811.5018310546875,773.2234497070312
2023-10-11 16:06:44.862318,798.6080322265625,791.7582397460938,813.5164794921875,802.2344360351562,700.6959838867188
2023-10-11 16:06:44.863583,812.3076782226562,785.3113403320312,806.2637329101562,801.8314819335938,722.05126953125
2023-10-11 16:06:44.865224,813.91943359375,789.3406372070312,804.2490844726562,804.6520385742188,819.1575317382812
2023-10-11 16:06:44.866462,805.054931640625,796.996337890625,810.2930297851562,816.3369750976562,927.94873046875
2023-10-11 16:06:44.867815,800.2197875976562,798.2051391601562,813.91943359375,821.1721801757812,920.2930297851562
2023-10-11 16:06:44.869158,799.010986328125,802.2344360351562,803.8461303710938,821.97802734375,787.3259887695312
2023-10-11 16:06:44.870665,807.87548828125,797.3992919921875,808.2783813476562,828.4249267578125,710.3662719726562
2023-10-11 16:06:44.872026,803.4432373046875,786.1171875,817.94873046875,830.8424682617188,876.3735961914062
2023-10-11 16:06:44.881994,791.7582397460938,790.952392578125,815.1282348632812,821.5750732421875,947.6923217773438
2023-10-11 16:06:44.885178,791.7582397460938,796.1904907226562,816.3369750976562,811.90478515625,698.6813354492188
2023-10-11 16:06:44.887241,798.6080322265625,799.010986328125,819.96337890625,817.94873046875,700.6959838867188
2023-10-11 16:06:44.903307,803.8461303710938,800.6226806640625,816.7399291992188,821.97802734375,763.9560546875
2023-10-11 16:06:44.904306,804.6520385742188,799.8168334960938,805.4578857421875,827.2161254882812,764.7619018554688
2023-10-11 16:06:44.905197,806.6666870117188,801.8314819335938,808.6813354492188,847.3626098632812,784.1025390625
2023-10-11 16:06:44.906045,806.6666870117188,804.6520385742188,816.3369750976562,854.6153564453125,806.6666870117188
2023-10-11 16:06:44.906891,799.8168334960938,799.010986328125,815.93408203125,839.7069702148438,772.8204956054688
2023-10-11 16:06:44.907864,801.025634765625,792.1611938476562,816.3369750976562,819.96337890625,738.974365234375
2023-10-11 16:06:44.908909,805.4578857421875,796.996337890625,815.5311279296875,799.010986328125,829.6337280273438
2023-10-11 16:06:44.909973,803.4432373046875,801.4285888671875,815.1282348632812,805.8607788085938,954.945068359375
2023-10-11 16:06:44.910900,801.8314819335938,802.2344360351562,809.4871826171875,823.1868286132812,997.2527465820312
2023-10-11 16:06:44.911724,792.5640869140625,803.4432373046875,807.87548828125,805.8607788085938,806.2637329101562
2023-10-11 16:06:44.912657,790.952392578125,801.025634765625,806.6666870117188,774.029296875,659.1941528320312
2023-10-11 16:06:44.913625,790.1465454101562,795.3846435546875,806.6666870117188,773.6264038085938,801.8314819335938
2023-10-11 16:06:44.961070,788.937744140625,792.967041015625,803.4432373046875,781.2820434570312,899.7435913085938
2023-10-11 16:06:44.962662,799.010986328125,798.6080322265625,795.3846435546875,784.1025390625,788.1318969726562
2023-10-11 16:06:44.964764,796.996337890625,805.8607788085938,780.879150390625,787.7289428710938,708.3516235351562
2023-10-11 16:06:44.966396,790.5494384765625,809.084228515625,777.6557006835938,790.1465454101562,728.09521484375
2023-10-11 16:06:44.968597,797.3992919921875,808.6813354492188,790.1465454101562,792.1611938476562,757.106201171875
2023-10-11 16:06:44.970431,801.025634765625,812.7106323242188,796.1904907226562,795.3846435546875,823.99267578125
2023-10-11 16:06:44.972666,793.7728881835938,806.6666870117188,799.4139404296875,795.7875366210938,838.4981689453125
2023-10-11 16:06:44.974433,781.6849975585938,798.6080322265625,803.4432373046875,793.3699340820312,895.3113403320312
2023-10-11 16:06:44.975417,780.4761962890625,800.6226806640625,803.040283203125,790.952392578125,906.1904907226562
2023-10-11 16:06:44.977057,792.967041015625,802.2344360351562,799.8168334960938,797.3992919921875,708.3516235351562
2023-10-11 16:06:44.982073,798.2051391601562,799.4139404296875,792.967041015625,803.040283203125,768.3883056640625
2023-10-11 16:06:44.998995,792.5640869140625,792.967041015625,795.7875366210938,809.89013671875,839.7069702148438
2023-10-11 16:06:45.008993,778.4615478515625,792.1611938476562,804.6520385742188,804.2490844726562,718.02197265625
2023-10-11 16:06:45.010944,768.7911987304688,796.5933837890625,805.4578857421875,795.7875366210938,653.5531005859375
2023-10-11 16:06:45.013118,778.4615478515625,803.8461303710938,812.3076782226562,799.4139404296875,765.970703125
2023-10-11 16:06:45.014991,786.923095703125,804.6520385742188,807.87548828125,798.2051391601562,838.4981689453125
2023-10-11 16:06:45.016540,778.4615478515625,800.6226806640625,792.5640869140625,793.7728881835938,797.8021850585938
2023-10-11 16:06:45.017695,780.0732421875,801.4285888671875,799.010986328125,798.6080322265625,813.91943359375
2023-10-11 16:06:45.019069,787.7289428710938,800.6226806640625,803.040283203125,805.8607788085938,887.6557006835938
2023-10-11 16:06:45.026391,794.1758422851562,803.8461303710938,806.2637329101562,807.4725341796875,953.7362670898438
2023-10-11 16:06:45.030389,794.1758422851562,803.8461303710938,811.90478515625,807.87548828125,873.5531005859375
2023-10-11 16:06:45.032949,792.1611938476562,802.2344360351562,809.89013671875,810.6959838867188,749.047607421875
2023-10-11 16:06:45.036551,790.952392578125,805.054931640625,805.054931640625,806.6666870117188,781.6849975585938
2023-10-11 16:06:45.039473,792.1611938476562,808.6813354492188,808.2783813476562,796.1904907226562,774.8351440429688
2023-10-11 16:06:45.048812,799.4139404296875,810.6959838867188,811.5018310546875,794.5787353515625,686.1904907226562
2023-10-11 16:06:45.050182,806.2637329101562,811.90478515625,809.89013671875,802.2344360351562,744.6153564453125
2023-10-11 16:06:45.051711,804.6520385742188,810.2930297851562,799.4139404296875,815.5311279296875,886.0439453125
2023-10-11 16:06:45.052841,795.7875366210938,808.6813354492188,795.3846435546875,813.113525390625,852.6007080078125
2023-10-11 16:06:45.054174,799.010986328125,810.6959838867188,807.4725341796875,798.6080322265625,723.2600708007812
2023-10-11 16:06:45.057743,804.2490844726562,808.2783813476562,809.084228515625,796.5933837890625,734.5421142578125
2023-10-11 16:06:45.059359,805.054931640625,810.2930297851562,807.87548828125,801.025634765625,1036.7398681640625
2023-10-11 16:06:45.061360,803.040283203125,809.4871826171875,817.94873046875,809.89013671875,1096.776611328125
2023-10-11 16:06:45.064981,792.967041015625,800.6226806640625,811.5018310546875,809.4871826171875,799.010986328125
2023-10-11 16:06:45.067426,791.7582397460938,804.2490844726562,800.2197875976562,809.084228515625,732.5274658203125
2023-10-11 16:06:45.073562,804.2490844726562,809.89013671875,803.4432373046875,815.1282348632812,734.945068359375
2023-10-11 16:06:45.074749,803.4432373046875,803.040283203125,799.4139404296875,808.2783813476562,751.062255859375
2023-10-11 16:06:45.110160,786.1171875,799.010986328125,799.4139404296875,800.6226806640625,730.915771484375
2023-10-11 16:06:45.116707,785.7142944335938,801.025634765625,811.5018310546875,811.90478515625,780.0732421875
2023-10-11 16:06:45.118937,792.5640869140625,803.4432373046875,811.098876953125,821.97802734375,842.5274658203125
2023-10-11 16:06:45.120564,795.7875366210938,804.6520385742188,805.8607788085938,811.098876953125,743.8095092773438
2023-10-11 16:06:45.122418,796.5933837890625,805.054931640625,810.6959838867188,806.2637329101562,740.989013671875
2023-10-11 16:06:45.125007,797.3992919921875,804.6520385742188,808.2783813476562,808.6813354492188,889.2673950195312
2023-10-11 16:06:45.126063,789.7435913085938,803.4432373046875,798.2051391601562,796.996337890625,1014.5787353515625
2023-10-11 16:06:45.127169,790.952392578125,805.4578857421875,790.952392578125,788.937744140625,812.7106323242188
2023-10-11 16:06:45.129005,804.2490844726562,808.2783813476562,798.6080322265625,805.8607788085938,659.5970458984375
2023-10-11 16:06:45.130738,799.8168334960938,804.2490844726562,800.6226806640625,799.8168334960938,818.3516235351562
2023-10-11 16:06:45.133367,791.3552856445312,805.054931640625,795.7875366210938,784.908447265625,868.3150024414062
2023-10-11 16:06:45.135233,789.3406372070312,804.6520385742188,804.6520385742188,790.1465454101562,739.7802124023438
2023-10-11 16:06:45.144634,790.952392578125,801.4285888671875,809.4871826171875,788.1318969726562,706.3369750976562
2023-10-11 16:06:45.146355,791.3552856445312,799.8168334960938,801.025634765625,791.3552856445312,715.2014770507812
2023-10-11 16:06:45.147937,794.981689453125,798.6080322265625,799.4139404296875,799.8168334960938,728.901123046875
2023-10-11 16:06:45.150061,802.2344360351562,806.6666870117188,805.8607788085938,806.2637329101562,751.062255859375
2023-10-11 16:06:45.152063,794.981689453125,808.2783813476562,802.6373901367188,801.4285888671875,766.3735961914062
2023-10-11 16:06:45.154080,784.908447265625,807.87548828125,801.8314819335938,793.7728881835938,934.7985229492188
2023-10-11 16:06:45.155578,787.7289428710938,804.6520385742188,803.8461303710938,793.3699340820312,958.974365234375
2023-10-11 16:06:45.157502,796.996337890625,803.4432373046875,798.2051391601562,794.981689453125,750.6593627929688
2023-10-11 16:06:45.159024,800.6226806640625,809.4871826171875,798.2051391601562,801.8314819335938,753.4798583984375
2023-10-11 16:06:45.160792,797.3992919921875,807.4725341796875,805.054931640625,802.2344360351562,861.4652099609375
2023-10-11 16:06:45.162268,796.996337890625,801.025634765625,804.6520385742188,798.2051391601562,782.893798828125
2023-10-11 16:06:45.163277,793.7728881835938,799.8168334960938,799.8168334960938,807.87548828125,635.018310546875
2023-10-11 16:06:45.177148,792.5640869140625,799.4139404296875,799.010986328125,813.91943359375,706.7399291992188
2023-10-11 16:06:45.178782,794.5787353515625,793.3699340820312,796.996337890625,802.2344360351562,806.6666870117188
2023-10-11 16:06:45.180478,796.5933837890625,793.7728881835938,794.5787353515625,801.8314819335938,788.937744140625
2023-10-11 16:06:45.191177,794.1758422851562,801.025634765625,802.6373901367188,808.6813354492188,727.6923217773438
2023-10-11 16:06:45.192401,786.923095703125,798.6080322265625,800.2197875976562,813.113525390625,757.5091552734375
2023-10-11 16:06:45.194804,796.996337890625,798.2051391601562,796.5933837890625,807.4725341796875,844.1392211914062
2023-10-11 16:06:45.198283,809.89013671875,808.2783813476562,808.2783813476562,795.3846435546875,844.1392211914062
2023-10-11 16:06:45.200768,804.6520385742188,814.7252807617188,813.91943359375,786.1171875,840.5128173828125
2023-10-11 16:06:45.202366,799.8168334960938,811.098876953125,810.2930297851562,785.7142944335938,862.6740112304688
2023-10-11 16:06:45.204159,801.025634765625,808.6813354492188,807.069580078125,790.952392578125,906.5933837890625
2023-10-11 16:06:45.205311,804.6520385742188,808.6813354492188,803.040283203125,788.5347900390625,786.923095703125
2023-10-11 16:06:45.208754,814.3223266601562,807.069580078125,798.6080322265625,784.908447265625,728.4981689453125
2023-10-11 16:06:45.244412,817.5457763671875,805.054931640625,798.6080322265625,781.2820434570312,878.3883056640625
2023-10-11 16:06:45.246012,811.90478515625,803.4432373046875,802.6373901367188,785.3113403320312,835.6776733398438
2023-10-11 16:06:45.247083,813.91943359375,805.8607788085938,804.6520385742188,785.3113403320312,679.3406372070312
2023-10-11 16:06:45.248221,814.3223266601562,809.4871826171875,799.4139404296875,780.4761962890625,700.6959838867188
2023-10-11 16:06:45.249495,805.8607788085938,811.5018310546875,805.8607788085938,790.952392578125,777.2527465820312
2023-10-11 16:06:45.250687,798.6080322265625,811.098876953125,810.2930297851562,808.2783813476562,879.1941528320312
2023-10-11 16:06:45.252586,788.1318969726562,809.89013671875,800.2197875976562,811.5018310546875,848.1685180664062
2023-10-11 16:06:45.254021,784.1025390625,809.084228515625,804.2490844726562,812.7106323242188,670.879150390625
2023-10-11 16:06:45.255097,788.937744140625,804.6520385742188,809.89013671875,801.4285888671875,828.8278198242188
2023-10-11 16:06:45.256321,790.1465454101562,803.8461303710938,806.2637329101562,789.7435913085938,925.93408203125
2023-10-11 16:06:45.257495,789.3406372070312,806.2637329101562,807.87548828125,793.3699340820312,777.6557006835938
2023-10-11 16:06:45.258616,791.3552856445312,811.098876953125,804.6520385742188,799.4139404296875,740.989013671875
2023-10-11 16:06:45.281323,790.5494384765625,807.87548828125,802.6373901367188,799.4139404296875,740.989013671875
2023-10-11 16:06:45.282490,789.3406372070312,800.2197875976562,806.2637329101562,801.4285888671875,685.3846435546875
2023-10-11 16:06:45.284028,792.1611938476562,807.87548828125,805.8607788085938,804.6520385742188,682.1611938476562
2023-10-11 16:06:45.285450,789.3406372070312,805.8607788085938,796.1904907226562,795.7875366210938,809.89013671875
2023-10-11 16:06:45.286504,773.2234497070312,796.996337890625,786.5201416015625,782.893798828125,796.996337890625
2023-10-11 16:06:45.296297,768.7911987304688,796.5933837890625,789.7435913085938,780.4761962890625,728.4981689453125
2023-10-11 16:06:45.298497,781.6849975585938,798.2051391601562,790.5494384765625,775.6410522460938,762.7472534179688
2023-10-11 16:06:45.301070,791.7582397460938,802.2344360351562,786.923095703125,774.4322509765625,880.4029541015625
2023-10-11 16:06:45.302703,792.967041015625,800.6226806640625,791.7582397460938,788.1318969726562,977.912109375
2023-10-11 16:06:45.308661,778.8644409179688,796.996337890625,799.8168334960938,793.7728881835938,801.4285888671875
2023-10-11 16:06:45.310551,778.8644409179688,804.2490844726562,799.010986328125,798.2051391601562,681.3552856445312
2023-10-11 16:06:45.311948,787.7289428710938,808.6813354492188,796.996337890625,796.996337890625,700.6959838867188
2023-10-11 16:06:45.343151,784.1025390625,804.6520385742188,794.5787353515625,784.908447265625,751.8681030273438
2023-10-11 16:06:45.344733,785.3113403320312,805.4578857421875,794.5787353515625,782.4908447265625,813.91943359375
2023-10-11 16:06:45.346230,789.7435913085938,806.2637329101562,800.2197875976562,794.1758422851562,774.029296875
2023-10-11 16:06:45.348296,787.3259887695312,804.6520385742188,801.8314819335938,795.7875366210938,785.7142944335938
2023-10-11 16:06:45.349819,790.952392578125,801.4285888671875,802.6373901367188,796.1904907226562,772.0146484375
2023-10-11 16:06:45.351654,795.7875366210938,800.2197875976562,800.2197875976562,800.2197875976562,755.091552734375
2023-10-11 16:06:45.354075,801.025634765625,806.2637329101562,796.5933837890625,799.4139404296875,852.1978149414062
2023-10-11 16:06:45.355930,797.3992919921875,811.90478515625,800.2197875976562,801.025634765625,983.1502075195312
2023-10-11 16:06:45.358230,786.5201416015625,809.084228515625,799.4139404296875,795.3846435546875,896.923095703125
2023-10-11 16:06:45.360289,786.923095703125,803.8461303710938,795.7875366210938,792.1611938476562,686.996337890625
2023-10-11 16:06:45.361320,788.1318969726562,802.6373901367188,795.3846435546875,792.1611938476562,725.2747192382812
2023-10-11 16:06:45.362388,794.981689453125,807.069580078125,799.010986328125,794.5787353515625,792.5640869140625
2023-10-11 16:06:45.377954,811.90478515625,817.5457763671875,797.3992919921875,801.025634765625,763.1502075195312
2023-10-11 16:06:45.378962,817.94873046875,823.5897216796875,801.8314819335938,807.4725341796875,703.113525390625
2023-10-11 16:06:45.379899,803.040283203125,817.1428833007812,814.7252807617188,804.2490844726562,703.5164794921875
2023-10-11 16:06:45.380835,799.8168334960938,813.5164794921875,817.1428833007812,805.4578857421875,790.952392578125
2023-10-11 16:06:45.383421,799.8168334960938,815.5311279296875,815.93408203125,803.4432373046875,821.97802734375
2023-10-11 16:06:45.386004,792.5640869140625,817.5457763671875,818.7545776367188,796.5933837890625,835.6776733398438
2023-10-11 16:06:45.388667,792.1611938476562,815.1282348632812,817.5457763671875,803.8461303710938,946.08056640625
2023-10-11 16:06:45.396268,786.1171875,807.4725341796875,816.7399291992188,811.90478515625,982.3442993164062
2023-10-11 16:06:45.398659,781.6849975585938,804.6520385742188,821.1721801757812,807.87548828125,808.6813354492188
2023-10-11 16:06:45.399856,784.5054931640625,803.040283203125,823.5897216796875,811.90478515625,740.1831665039062
2023-10-11 16:06:45.401021,789.3406372070312,801.4285888671875,821.1721801757812,821.1721801757812,869.9267578125
2023-10-11 16:06:45.402021,790.1465454101562,802.2344360351562,822.3809814453125,819.96337890625,857.8388061523438
2023-10-11 16:06:45.444944,792.1611938476562,803.4432373046875,822.3809814453125,815.1282348632812,714.3956298828125
2023-10-11 16:06:45.446141,794.981689453125,804.2490844726562,818.3516235351562,812.3076782226562,704.3223266601562
2023-10-11 16:06:45.447479,795.7875366210938,806.2637329101562,816.3369750976562,803.8461303710938,784.5054931640625
2023-10-11 16:06:45.448769,801.8314819335938,809.084228515625,816.7399291992188,804.2490844726562,792.967041015625
2023-10-11 16:06:45.449975,802.2344360351562,811.90478515625,815.1282348632812,817.1428833007812,718.02197265625
2023-10-11 16:06:45.451238,798.2051391601562,812.3076782226562,810.6959838867188,813.5164794921875,745.4212646484375
2023-10-11 16:06:45.454409,793.3699340820312,807.87548828125,804.6520385742188,811.5018310546875,1019.4139404296875
2023-10-11 16:06:45.455732,794.5787353515625,804.2490844726562,803.8461303710938,816.7399291992188,1124.5787353515625
2023-10-11 16:06:45.457197,799.4139404296875,804.6520385742188,811.5018310546875,805.054931640625,847.3626098632812
2023-10-11 16:06:45.458467,799.8168334960938,810.2930297851562,815.93408203125,800.6226806640625,718.02197265625
2023-10-11 16:06:45.459668,794.981689453125,812.7106323242188,806.6666870117188,802.2344360351562,745.4212646484375
2023-10-11 16:06:45.460959,795.7875366210938,812.3076782226562,797.3992919921875,799.8168334960938,737.7655639648438
2023-10-11 16:06:45.477250,805.054931640625,816.3369750976562,800.2197875976562,801.8314819335938,735.7509155273438
2023-10-11 16:06:45.478537,799.010986328125,818.7545776367188,808.6813354492188,802.2344360351562,793.7728881835938
2023-10-11 16:06:45.479615,791.3552856445312,812.3076782226562,808.2783813476562,802.2344360351562,801.025634765625
2023-10-11 16:06:45.481035,789.3406372070312,809.084228515625,805.054931640625,796.996337890625,699.89013671875
2023-10-11 16:06:45.482530,784.5054931640625,811.098876953125,806.6666870117188,798.6080322265625,638.6447143554688
2023-10-11 16:06:45.483858,786.923095703125,817.1428833007812,813.5164794921875,808.2783813476562,851.7948608398438
2023-10-11 16:06:45.486788,784.908447265625,815.5311279296875,813.91943359375,813.91943359375,1014.5787353515625
2023-10-11 16:06:45.487803,774.4322509765625,801.025634765625,799.010986328125,805.8607788085938,798.6080322265625
2023-10-11 16:06:45.489021,771.2088012695312,795.7875366210938,794.1758422851562,801.8314819335938,682.967041015625
2023-10-11 16:06:45.497142,779.2673950195312,801.025634765625,796.1904907226562,809.4871826171875,835.6776733398438
2023-10-11 16:06:45.498379,790.1465454101562,807.87548828125,793.3699340820312,812.3076782226562,935.6043701171875
2023-10-11 16:06:45.499981,795.3846435546875,812.3076782226562,794.1758422851562,801.025634765625,792.967041015625
2023-10-11 16:06:45.510567,793.7728881835938,811.90478515625,795.3846435546875,789.3406372070312,724.8717651367188
2023-10-11 16:06:45.512258,796.996337890625,807.87548828125,800.6226806640625,796.1904907226562,714.3956298828125
2023-10-11 16:06:45.513729,790.5494384765625,803.040283203125,799.4139404296875,803.040283203125,701.90478515625
2023-10-11 16:06:45.516740,789.3406372070312,804.6520385742188,794.5787353515625,799.4139404296875,715.6043701171875
2023-10-11 16:06:45.519290,798.6080322265625,810.6959838867188,794.1758422851562,801.4285888671875,771.2088012695312
2023-10-11 16:06:45.520458,800.2197875976562,811.90478515625,797.3992919921875,809.084228515625,841.3186645507812
2023-10-11 16:06:45.522200,799.4139404296875,807.87548828125,794.1758422851562,808.2783813476562,814.7252807617188
2023-10-11 16:06:45.524718,803.4432373046875,806.2637329101562,790.1465454101562,800.2197875976562,716.4102783203125
2023-10-11 16:06:45.525861,804.2490844726562,807.87548828125,801.4285888671875,807.87548828125,680.5494384765625
2023-10-11 16:06:45.527153,799.4139404296875,807.4725341796875,807.069580078125,815.93408203125,876.3735961914062
2023-10-11 16:06:45.529218,802.6373901367188,805.4578857421875,801.025634765625,803.8461303710938,927.5457763671875
2023-10-11 16:06:45.531247,807.069580078125,805.054931640625,802.2344360351562,798.2051391601562,752.2710571289062
2023-10-11 16:06:45.577348,795.7875366210938,806.2637329101562,808.6813354492188,791.7582397460938,750.6593627929688
2023-10-11 16:06:45.579224,781.6849975585938,809.4871826171875,809.084228515625,789.7435913085938,809.4871826171875
2023-10-11 16:06:45.580756,787.3259887695312,814.7252807617188,807.4725341796875,793.7728881835938,793.3699340820312
2023-10-11 16:06:45.582244,789.3406372070312,817.1428833007812,806.2637329101562,796.1904907226562,767.5823974609375
2023-10-11 16:06:45.583974,788.1318969726562,818.3516235351562,801.8314819335938,786.1171875,791.7582397460938
2023-10-11 16:06:45.585524,789.7435913085938,818.3516235351562,803.8461303710938,781.2820434570312,854.6153564453125
2023-10-11 16:06:45.587214,789.7435913085938,813.5164794921875,806.6666870117188,790.5494384765625,840.915771484375
2023-10-11 16:06:45.589008,791.3552856445312,807.069580078125,803.8461303710938,791.3552856445312,765.5677490234375
2023-10-11 16:06:45.590355,793.3699340820312,807.87548828125,805.4578857421875,794.1758422851562,834.06591796875
2023-10-11 16:06:45.592196,786.923095703125,811.90478515625,809.89013671875,796.5933837890625,931.5750732421875
2023-10-11 16:06:45.593696,778.8644409179688,811.098876953125,808.2783813476562,789.3406372070312,759.9267578125
2023-10-11 16:06:45.601892,784.1025390625,804.2490844726562,799.4139404296875,784.1025390625,671.2820434570312
2023-10-11 16:06:45.610752,795.3846435546875,802.6373901367188,792.1611938476562,780.4761962890625,782.087890625
2023-10-11 16:06:45.611982,792.1611938476562,809.084228515625,795.7875366210938,781.2820434570312,801.025634765625
2023-10-11 16:06:45.613652,787.7289428710938,813.5164794921875,803.4432373046875,787.3259887695312,772.4176025390625
2023-10-11 16:06:45.615067,794.1758422851562,813.91943359375,794.1758422851562,784.908447265625,749.4505615234375
2023-10-11 16:06:45.616423,784.5054931640625,806.6666870117188,788.5347900390625,785.3113403320312,783.2966918945312
2023-10-11 16:06:45.618078,781.6849975585938,806.2637329101562,803.4432373046875,786.1171875,874.7619018554688
2023-10-11 16:06:45.619234,795.7875366210938,817.5457763671875,815.5311279296875,788.937744140625,828.8278198242188
2023-10-11 16:06:45.620419,789.3406372070312,815.93408203125,814.3223266601562,795.7875366210938,747.032958984375
2023-10-11 16:06:45.621473,783.2966918945312,809.89013671875,809.89013671875,788.5347900390625,887.2527465820312
2023-10-11 16:06:45.622599,782.4908447265625,811.5018310546875,807.87548828125,784.1025390625,912.6373901367188
2023-10-11 16:06:45.624087,785.3113403320312,814.3223266601562,809.084228515625,797.3992919921875,731.3186645507812
2023-10-11 16:06:45.625713,786.923095703125,807.87548828125,806.2637329101562,795.3846435546875,791.7582397460938
2023-10-11 16:06:45.644516,792.967041015625,805.054931640625,807.87548828125,787.7289428710938,799.4139404296875
2023-10-11 16:06:45.645692,794.5787353515625,811.90478515625,808.2783813476562,785.3113403320312,727.6923217773438
2023-10-11 16:06:45.646825,788.1318969726562,809.4871826171875,805.054931640625,784.908447265625,706.3369750976562
2023-10-11 16:06:45.648696,790.1465454101562,810.6959838867188,805.8607788085938,788.1318969726562,770.0
2023-10-11 16:06:45.652227,793.3699340820312,811.098876953125,805.4578857421875,792.5640869140625,806.6666870117188
2023-10-11 16:06:45.654242,792.5640869140625,809.89013671875,804.2490844726562,796.5933837890625,779.6703491210938
2023-10-11 16:06:45.656547,790.1465454101562,813.113525390625,805.4578857421875,789.7435913085938,834.06591796875
2023-10-11 16:06:45.658696,791.3552856445312,811.098876953125,801.8314819335938,783.6996459960938,903.3699340820312
2023-10-11 16:06:45.660775,803.4432373046875,815.5311279296875,799.4139404296875,800.6226806640625,993.2234497070312
2023-10-11 16:06:45.662761,805.8607788085938,817.1428833007812,799.010986328125,801.8314819335938,882.8204956054688
2023-10-11 16:06:45.664021,793.3699340820312,816.7399291992188,798.2051391601562,789.7435913085938,733.3333129882812
2023-10-11 16:06:45.665299,790.1465454101562,816.7399291992188,801.025634765625,796.1904907226562,794.981689453125
2023-10-11 16:06:45.716656,800.6226806640625,813.91943359375,804.6520385742188,801.025634765625,794.981689453125
2023-10-11 16:06:45.725237,806.2637329101562,815.5311279296875,795.3846435546875,803.8461303710938,707.94873046875
2023-10-11 16:06:45.726269,804.2490844726562,817.5457763671875,785.7142944335938,805.8607788085938,738.1685180664062
2023-10-11 16:06:45.727604,805.4578857421875,818.3516235351562,794.1758422851562,800.6226806640625,794.981689453125
2023-10-11 16:06:45.728787,800.6226806640625,814.3223266601562,811.098876953125,809.084228515625,768.7911987304688
2023-10-11 16:06:45.729896,798.2051391601562,817.1428833007812,814.3223266601562,818.3516235351562,753.4798583984375
2023-10-11 16:06:45.731281,799.4139404296875,820.7692260742188,803.8461303710938,805.4578857421875,822.7838745117188
2023-10-11 16:06:45.732480,800.6226806640625,821.97802734375,801.4285888671875,805.4578857421875,963.003662109375
2023-10-11 16:06:45.737424,805.054931640625,824.3956298828125,798.6080322265625,811.098876953125,975.8974609375
2023-10-11 16:06:45.738873,808.6813354492188,826.00732421875,795.3846435546875,801.025634765625,736.1538696289062
2023-10-11 16:06:45.740760,808.2783813476562,822.7838745117188,799.010986328125,799.4139404296875,648.7179565429688
2023-10-11 16:06:45.742307,805.054931640625,817.5457763671875,799.010986328125,804.2490844726562,754.6886596679688
2023-10-11 16:06:45.751636,807.069580078125,819.1575317382812,795.7875366210938,805.054931640625,806.6666870117188
2023-10-11 16:06:45.753163,807.4725341796875,818.7545776367188,797.8021850585938,806.2637329101562,763.9560546875
2023-10-11 16:06:45.756633,803.040283203125,817.94873046875,802.6373901367188,805.054931640625,752.2710571289062
2023-10-11 16:06:45.757802,806.6666870117188,819.5604248046875,800.6226806640625,810.2930297851562,735.7509155273438
2023-10-11 16:06:45.759300,817.5457763671875,820.7692260742188,794.5787353515625,809.084228515625,707.5457763671875
2023-10-11 16:06:45.760615,821.5750732421875,815.1282348632812,797.3992919921875,806.2637329101562,746.2271118164062
2023-10-11 16:06:45.761914,814.7252807617188,813.5164794921875,795.7875366210938,811.098876953125,908.6080322265625
2023-10-11 16:06:45.763036,808.2783813476562,822.7838745117188,789.7435913085938,816.3369750976562,1005.3113403320312
2023-10-11 16:06:45.764598,807.069580078125,824.7985229492188,794.5787353515625,815.5311279296875,774.8351440429688
2023-10-11 16:06:45.767320,811.90478515625,824.3956298828125,799.4139404296875,810.2930297851562,661.2088012695312
2023-10-11 16:06:45.769355,817.1428833007812,824.7985229492188,799.010986328125,804.2490844726562,778.05859375
2023-10-11 16:06:45.771093,813.91943359375,827.2161254882812,799.010986328125,805.054931640625,865.091552734375
2023-10-11 16:06:45.810607,807.4725341796875,829.6337280273438,796.996337890625,812.3076782226562,768.7911987304688
2023-10-11 16:06:45.812458,798.6080322265625,824.7985229492188,795.3846435546875,804.6520385742188,690.6226806640625
2023-10-11 16:06:45.814107,786.1171875,817.5457763671875,800.6226806640625,797.8021850585938,811.098876953125
2023-10-11 16:06:45.823875,784.1025390625,817.94873046875,801.4285888671875,798.2051391601562,864.2857055664062
2023-10-11 16:06:45.825738,784.5054931640625,818.3516235351562,800.2197875976562,796.1904907226562,814.3223266601562
2023-10-11 16:06:45.827492,787.3259887695312,820.7692260742188,803.040283203125,803.4432373046875,808.6813354492188
2023-10-11 16:06:45.828739,792.5640869140625,825.2014770507812,799.8168334960938,805.4578857421875,980.3296508789062
2023-10-11 16:06:45.829764,795.7875366210938,822.7838745117188,803.8461303710938,793.7728881835938,976.7033081054688
2023-10-11 16:06:45.830823,801.8314819335938,823.99267578125,801.4285888671875,784.5054931640625,746.2271118164062
2023-10-11 16:06:45.831942,799.8168334960938,827.2161254882812,799.010986328125,785.7142944335938,748.2417602539062
2023-10-11 16:06:45.833374,800.2197875976562,832.05126953125,801.025634765625,789.3406372070312,767.5823974609375
2023-10-11 16:06:45.834509,804.2490844726562,828.4249267578125,797.3992919921875,786.1171875,721.2454223632812
2023-10-11 16:06:45.850926,804.6520385742188,828.4249267578125,799.8168334960938,775.6410522460938,688.2051391601562
2023-10-11 16:06:45.852649,808.2783813476562,835.6776733398438,799.8168334960938,772.8204956054688,794.1758422851562
2023-10-11 16:06:45.854759,813.5164794921875,835.6776733398438,801.025634765625,780.879150390625,899.3406372070312
2023-10-11 16:06:45.856382,804.6520385742188,834.06591796875,804.6520385742188,788.5347900390625,825.6043701171875
2023-10-11 16:06:45.857882,785.7142944335938,833.2600708007812,801.8314819335938,800.2197875976562,732.930419921875
2023-10-11 16:06:45.860571,780.0732421875,834.06591796875,803.8461303710938,810.6959838867188,833.6630249023438
2023-10-11 16:06:45.862291,788.937744140625,835.2747192382812,804.2490844726562,815.5311279296875,1008.1318969726562
2023-10-11 16:06:45.863989,792.1611938476562,829.6337280273438,797.8021850585938,809.4871826171875,871.5384521484375
2023-10-11 16:06:45.865503,786.923095703125,825.2014770507812,790.5494384765625,803.8461303710938,736.5567626953125
2023-10-11 16:06:45.867277,780.879150390625,824.3956298828125,793.7728881835938,807.87548828125,790.5494384765625
2023-10-11 16:06:45.868802,789.7435913085938,830.4395751953125,801.4285888671875,806.2637329101562,778.05859375
2023-10-11 16:06:45.870515,792.5640869140625,827.6190185546875,800.2197875976562,791.3552856445312,712.7838745117188
2023-10-11 16:06:45.893785,791.3552856445312,821.1721801757812,797.3992919921875,792.967041015625,718.8278198242188
2023-10-11 16:06:45.895194,797.3992919921875,830.8424682617188,801.8314819335938,803.4432373046875,753.076904296875
2023-10-11 16:06:45.897366,794.981689453125,829.2307739257812,801.025634765625,794.5787353515625,739.7802124023438
2023-10-11 16:06:45.899175,786.5201416015625,825.2014770507812,800.6226806640625,790.5494384765625,670.4761962890625
2023-10-11 16:06:45.901094,774.4322509765625,824.7985229492188,803.8461303710938,790.5494384765625,704.3223266601562
2023-10-11 16:06:45.912515,775.6410522460938,823.99267578125,803.4432373046875,788.5347900390625,940.4395751953125
2023-10-11 16:06:45.913448,774.029296875,819.1575317382812,803.040283203125,783.2966918945312,1021.025634765625
2023-10-11 16:06:45.914308,777.2527465820312,818.7545776367188,802.2344360351562,785.3113403320312,807.069580078125
2023-10-11 16:06:45.915181,780.0732421875,823.5897216796875,805.054931640625,792.1611938476562,692.6373901367188
2023-10-11 16:06:45.916099,768.7911987304688,824.3956298828125,809.89013671875,789.7435913085938,866.7033081054688
2023-10-11 16:06:45.917049,756.3003540039062,815.93408203125,812.3076782226562,764.7619018554688,891.2820434570312
2023-10-11 16:06:45.919098,749.8534545898438,812.7106323242188,810.6959838867188,756.7033081054688,733.3333129882812
2023-10-11 16:06:45.927136,743.003662109375,818.3516235351562,813.113525390625,757.106201171875,747.4359130859375
2023-10-11 16:06:45.928089,716.00732421875,812.7106323242188,817.5457763671875,732.12451171875,744.6153564453125
2023-10-11 16:06:45.929097,704.7252807617188,812.7106323242188,817.94873046875,713.1868286132812,705.5311279296875
2023-10-11 16:06:45.930143,707.5457763671875,816.3369750976562,816.3369750976562,697.4725341796875,716.8131713867188
2023-10-11 16:06:45.931250,687.3992919921875,813.5164794921875,817.1428833007812,681.7582397460938,773.2234497070312
2023-10-11 16:06:45.932127,657.1795043945312,801.8314819335938,815.93408203125,654.7619018554688,834.8717651367188
2023-10-11 16:06:45.934087,641.062255859375,795.3846435546875,815.93408203125,633.003662109375,785.3113403320312
2023-10-11 16:06:45.934975,647.106201171875,797.3992919921875,816.3369750976562,637.4359130859375,743.4066162109375
2023-10-11 16:06:45.937717,645.8974609375,796.1904907226562,817.5457763671875,642.6740112304688,838.901123046875
2023-10-11 16:06:45.938792,641.4652099609375,796.1904907226562,817.1428833007812,647.106201171875,1002.893798828125
2023-10-11 16:06:45.939867,642.6740112304688,796.996337890625,813.5164794921875,647.912109375,896.5201416015625
2023-10-11 16:06:45.941225,649.9267578125,797.3992919921875,810.6959838867188,645.8974609375,687.3992919921875
2023-10-11 16:06:45.993985,664.4322509765625,802.6373901367188,806.6666870117188,659.1941528320312,738.974365234375
2023-10-11 16:06:45.995681,673.6996459960938,804.6520385742188,802.2344360351562,660.0,807.87548828125
2023-10-11 16:06:45.997091,687.3992919921875,808.6813354492188,800.6226806640625,661.6116943359375,784.1025390625
2023-10-11 16:06:45.998559,693.4432373046875,817.5457763671875,801.8314819335938,681.7582397460938,739.3773193359375
2023-10-11 16:06:46.000193,692.2344360351562,816.3369750976562,801.8314819335938,690.2197875976562,718.02197265625
2023-10-11 16:06:46.001539,698.6813354492188,811.5018310546875,797.8021850585938,698.6813354492188,790.1465454101562
2023-10-11 16:06:46.004737,710.3662719726562,807.87548828125,790.952392578125,705.93408203125,838.09521484375
2023-10-11 16:06:46.012974,727.2893676757812,808.6813354492188,787.7289428710938,711.1721801757812,779.6703491210938
2023-10-11 16:06:46.014472,740.1831665039062,815.5311279296875,794.5787353515625,738.1685180664062,913.040283203125
2023-10-11 16:06:46.016009,748.2417602539062,820.3662719726562,802.6373901367188,753.8828125,965.018310546875
2023-10-11 16:06:46.017365,764.3589477539062,827.2161254882812,799.4139404296875,756.7033081054688,799.8168334960938
2023-10-11 16:06:46.019119,775.6410522460938,825.2014770507812,788.5347900390625,767.5823974609375,788.5347900390625
2023-10-11 16:06:46.033889,786.1171875,819.1575317382812,793.3699340820312,778.4615478515625,830.03662109375
2023-10-11 16:06:46.035197,788.937744140625,819.1575317382812,791.3552856445312,785.7142944335938,796.1904907226562
2023-10-11 16:06:46.036587,786.1171875,820.7692260742188,784.908447265625,782.087890625,704.7252807617188
2023-10-11 16:06:46.040437,792.5640869140625,821.97802734375,785.3113403320312,781.2820434570312,710.7692260742188
2023-10-11 16:06:46.042434,807.4725341796875,821.5750732421875,782.893798828125,787.3259887695312,787.7289428710938
2023-10-11 16:06:46.044571,817.5457763671875,821.1721801757812,790.952392578125,796.5933837890625,897.7289428710938
2023-10-11 16:06:46.046943,819.5604248046875,817.94873046875,797.8021850585938,801.4285888671875,901.3552856445312
2023-10-11 16:06:46.047943,823.99267578125,814.3223266601562,795.3846435546875,806.6666870117188,862.2710571289062
2023-10-11 16:06:46.053438,821.5750732421875,815.93408203125,790.1465454101562,813.91943359375,944.4688720703125
2023-10-11 16:06:46.055986,821.1721801757812,815.93408203125,783.6996459960938,817.94873046875,840.5128173828125
2023-10-11 16:06:46.059435,830.03662109375,811.90478515625,784.1025390625,817.94873046875,760.3296508789062
2023-10-11 16:06:46.060629,835.6776733398438,819.1575317382812,786.923095703125,819.1575317382812,815.5311279296875
2023-10-11 16:06:46.095849,837.6923217773438,826.4102783203125,789.3406372070312,821.1721801757812,788.937744140625
2023-10-11 16:06:46.097376,842.12451171875,823.5897216796875,790.5494384765625,827.2161254882812,712.3809814453125
2023-10-11 16:06:46.098668,844.1392211914062,820.3662719726562,784.1025390625,833.6630249023438,705.93408203125
2023-10-11 16:06:46.100487,845.7509155273438,819.5604248046875,784.908447265625,839.3040161132812,822.3809814453125
2023-10-11 16:06:46.101766,843.7362670898438,820.7692260742188,794.981689453125,843.3333129882812,836.08056640625
2023-10-11 16:06:46.103074,835.6776733398438,821.1721801757812,794.981689453125,845.7509155273438,789.3406372070312
2023-10-11 16:06:46.104795,840.10986328125,824.3956298828125,793.3699340820312,856.6300659179688,768.7911987304688
2023-10-11 16:06:46.106265,853.003662109375,824.7985229492188,797.3992919921875,869.9267578125,861.8681030273438
2023-10-11 16:06:46.107883,851.7948608398438,817.1428833007812,792.1611938476562,864.6886596679688,917.87548828125
2023-10-11 16:06:46.117678,839.7069702148438,816.7399291992188,781.2820434570312,848.1685180664062,780.4761962890625
2023-10-11 16:06:46.118817,835.6776733398438,817.94873046875,785.3113403320312,844.5421142578125,758.3150024414062
2023-10-11 16:06:46.120284,844.1392211914062,820.7692260742188,796.996337890625,844.1392211914062,751.4652099609375
2023-10-11 16:06:46.127568,844.5421142578125,823.99267578125,799.010986328125,843.7362670898438,713.1868286132812
2023-10-11 16:06:46.129217,837.6923217773438,823.5897216796875,796.1904907226562,842.12451171875,729.7069702148438
2023-10-11 16:06:46.130759,838.09521484375,822.3809814453125,797.3992919921875,844.1392211914062,804.6520385742188
2023-10-11 16:06:46.132432,841.7216186523438,820.7692260742188,799.8168334960938,850.5860595703125,795.3846435546875
2023-10-11 16:06:46.133884,833.2600708007812,824.3956298828125,801.025634765625,851.7948608398438,739.3773193359375
2023-10-11 16:06:46.135375,829.6337280273438,822.7838745117188,800.6226806640625,849.3773193359375,777.2527465820312
2023-10-11 16:06:46.137243,840.5128173828125,822.3809814453125,803.8461303710938,848.5714111328125,921.098876953125
2023-10-11 16:06:46.138761,843.3333129882812,824.3956298828125,804.2490844726562,854.2124633789062,1045.6043701171875
2023-10-11 16:06:46.140326,836.08056640625,821.97802734375,800.2197875976562,855.4212646484375,867.912109375
2023-10-11 16:06:46.142016,829.6337280273438,819.96337890625,803.8461303710938,845.3479614257812,639.4505615234375
2023-10-11 16:06:46.143834,835.2747192382812,817.5457763671875,806.6666870117188,834.8717651367188,714.3956298828125
2023-10-11 16:06:46.145373,840.915771484375,815.5311279296875,801.8314819335938,832.05126953125,824.3956298828125
2023-10-11 16:06:46.193835,843.3333129882812,817.1428833007812,800.6226806640625,823.99267578125,730.915771484375
2023-10-11 16:06:46.195186,838.901123046875,818.7545776367188,797.8021850585938,822.7838745117188,702.3076782226562
2023-10-11 16:06:46.196335,831.2454223632812,821.1721801757812,794.1758422851562,816.3369750976562,730.915771484375
2023-10-11 16:06:46.197411,836.4835205078125,817.94873046875,799.010986328125,815.93408203125,743.8095092773438
2023-10-11 16:06:46.198492,839.7069702148438,814.3223266601562,802.6373901367188,838.901123046875,719.2307739257812
2023-10-11 16:06:46.199544,834.4688720703125,819.1575317382812,796.996337890625,847.3626098632812,776.8497924804688
2023-10-11 16:06:46.200796,832.05126953125,823.1868286132812,792.5640869140625,838.901123046875,981.5384521484375
2023-10-11 16:06:46.202011,835.2747192382812,826.00732421875,796.5933837890625,831.2454223632812,1018.6080322265625
2023-10-11 16:06:46.203268,838.4981689453125,827.2161254882812,801.4285888671875,827.6190185546875,736.959716796875
2023-10-11 16:06:46.204331,834.06591796875,822.7838745117188,801.8314819335938,826.8131713867188,659.1941528320312
2023-10-11 16:06:46.205714,829.2307739257812,819.96337890625,798.6080322265625,827.2161254882812,790.1465454101562
2023-10-11 16:06:46.214685,833.2600708007812,824.3956298828125,801.8314819335938,829.6337280273438,784.1025390625
2023-10-11 16:06:46.230305,834.06591796875,828.02197265625,800.6226806640625,820.7692260742188,683.7728881835938
2023-10-11 16:06:46.232088,829.2307739257812,828.02197265625,795.7875366210938,819.5604248046875,710.3662719726562
2023-10-11 16:06:46.236790,825.6043701171875,826.00732421875,795.7875366210938,829.2307739257812,765.5677490234375
2023-10-11 16:06:46.238570,831.2454223632812,822.7838745117188,794.1758422851562,828.8278198242188,789.3406372070312
2023-10-11 16:06:46.240003,828.8278198242188,820.7692260742188,795.7875366210938,837.6923217773438,778.05859375
2023-10-11 16:06:46.241774,810.2930297851562,816.3369750976562,800.6226806640625,839.3040161132812,832.4542236328125
2023-10-11 16:06:46.245490,811.5018310546875,815.5311279296875,805.4578857421875,834.4688720703125,892.893798828125
2023-10-11 16:06:46.246734,827.6190185546875,823.99267578125,809.4871826171875,838.09521484375,751.8681030273438
2023-10-11 16:06:46.248189,823.1868286132812,824.7985229492188,803.040283203125,826.4102783203125,748.6447143554688
2023-10-11 16:06:46.250123,808.6813354492188,816.3369750976562,798.2051391601562,824.7985229492188,942.4542236328125
2023-10-11 16:06:46.251641,807.069580078125,811.90478515625,799.8168334960938,824.3956298828125,840.10986328125
2023-10-11 16:06:46.253139,810.6959838867188,813.113525390625,797.3992919921875,811.5018310546875,665.6410522460938
2023-10-11 16:06:46.262954,812.7106323242188,815.5311279296875,798.6080322265625,807.87548828125,720.8424682617188
2023-10-11 16:06:46.264538,811.5018310546875,815.93408203125,803.040283203125,814.7252807617188,801.4285888671875
2023-10-11 16:06:46.267277,811.098876953125,818.7545776367188,800.6226806640625,812.3076782226562,794.5787353515625
2023-10-11 16:06:46.268966,813.5164794921875,816.3369750976562,801.025634765625,806.2637329101562,785.7142944335938
2023-10-11 16:06:46.270533,815.5311279296875,813.113525390625,805.054931640625,812.3076782226562,789.3406372070312
2023-10-11 16:06:46.272216,818.7545776367188,817.94873046875,805.054931640625,815.5311279296875,840.5128173828125
2023-10-11 16:06:46.273865,819.96337890625,820.3662719726562,802.6373901367188,812.3076782226562,851.3919677734375
2023-10-11 16:06:46.275435,816.7399291992188,815.93408203125,802.6373901367188,813.113525390625,747.4359130859375
2023-10-11 16:06:46.276826,814.7252807617188,810.2930297851562,801.4285888671875,813.113525390625,746.6300659179688
2023-10-11 16:06:46.278465,809.4871826171875,807.87548828125,798.6080322265625,815.5311279296875,926.7399291992188
2023-10-11 16:06:46.279921,807.069580078125,807.87548828125,798.6080322265625,819.96337890625,817.94873046875
2023-10-11 16:06:46.281797,809.4871826171875,810.2930297851562,801.4285888671875,818.7545776367188,767.5823974609375
2023-10-11 16:06:46.328730,807.069580078125,807.4725341796875,805.054931640625,815.1282348632812,875.970703125
2023-10-11 16:06:46.343157,800.2197875976562,805.8607788085938,805.054931640625,815.1282348632812,810.2930297851562
2023-10-11 16:06:46.345252,798.6080322265625,809.89013671875,803.040283203125,811.098876953125,709.96337890625
2023-10-11 16:06:46.346744,811.098876953125,812.3076782226562,800.2197875976562,807.4725341796875,732.12451171875
2023-10-11 16:06:46.348017,809.89013671875,811.5018310546875,795.3846435546875,809.4871826171875,790.1465454101562
2023-10-11 16:06:46.349381,793.7728881835938,807.4725341796875,792.967041015625,810.2930297851562,875.1648559570312
2023-10-11 16:06:46.350750,788.1318969726562,804.6520385742188,793.7728881835938,807.4725341796875,895.7142944335938
2023-10-11 16:06:46.351885,791.7582397460938,805.8607788085938,799.010986328125,807.069580078125,763.5531005859375
2023-10-11 16:06:46.356626,801.025634765625,802.6373901367188,799.4139404296875,815.93408203125,879.5970458984375
2023-10-11 16:06:46.357768,804.2490844726562,803.040283203125,797.3992919921875,818.3516235351562,940.8424682617188
2023-10-11 16:06:46.358995,801.4285888671875,805.054931640625,800.6226806640625,813.5164794921875,751.4652099609375
2023-10-11 16:06:46.360113,797.8021850585938,803.8461303710938,801.4285888671875,814.3223266601562,704.7252807617188
2023-10-11 16:06:46.372084,791.3552856445312,803.040283203125,799.4139404296875,815.93408203125,729.3040161132812
2023-10-11 16:06:46.373238,795.3846435546875,804.2490844726562,792.1611938476562,805.054931640625,727.6923217773438
2023-10-11 16:06:46.374394,796.996337890625,807.4725341796875,789.3406372070312,796.996337890625,782.087890625
2023-10-11 16:06:46.375442,790.1465454101562,805.8607788085938,800.2197875976562,802.6373901367188,784.1025390625
2023-10-11 16:06:46.376817,789.7435913085938,805.8607788085938,804.2490844726562,801.8314819335938,814.3223266601562
2023-10-11 16:06:46.377925,790.952392578125,804.2490844726562,799.010986328125,794.981689453125,845.3479614257812
2023-10-11 16:06:46.379071,795.3846435546875,804.2490844726562,798.2051391601562,788.937744140625,796.1904907226562
2023-10-11 16:06:46.380569,803.8461303710938,808.2783813476562,795.3846435546875,790.1465454101562,814.7252807617188
2023-10-11 16:06:46.381798,805.4578857421875,808.2783813476562,794.5787353515625,801.025634765625,981.5384521484375
2023-10-11 16:06:46.382944,795.7875366210938,804.2490844726562,799.4139404296875,797.8021850585938,826.4102783203125
2023-10-11 16:06:46.383989,792.5640869140625,800.6226806640625,802.2344360351562,800.6226806640625,686.5933837890625
2023-10-11 16:06:46.388535,804.2490844726562,803.4432373046875,803.8461303710938,805.4578857421875,759.120849609375
2023-10-11 16:06:46.395907,813.113525390625,803.040283203125,801.4285888671875,798.6080322265625,795.7875366210938
2023-10-11 16:06:46.397446,811.90478515625,804.6520385742188,799.010986328125,796.996337890625,776.4468994140625
2023-10-11 16:06:46.398792,803.8461303710938,807.069580078125,801.025634765625,798.2051391601562,762.3442993164062
2023-10-11 16:06:46.406807,790.5494384765625,804.6520385742188,799.010986328125,800.6226806640625,776.0439453125
2023-10-11 16:06:46.407852,790.5494384765625,801.8314819335938,799.010986328125,803.8461303710938,737.3626098632812
2023-10-11 16:06:46.412681,790.952392578125,796.5933837890625,803.040283203125,807.4725341796875,791.7582397460938
2023-10-11 16:06:46.413931,795.3846435546875,799.4139404296875,801.8314819335938,799.4139404296875,860.6593627929688
2023-10-11 16:06:46.415192,805.054931640625,809.89013671875,795.7875366210938,786.5201416015625,938.4249267578125
2023-10-11 16:06:46.416451,796.5933837890625,810.2930297851562,802.2344360351562,786.5201416015625,900.5494384765625
2023-10-11 16:06:46.417891,786.923095703125,804.2490844726562,805.4578857421875,793.7728881835938,706.7399291992188
2023-10-11 16:06:46.419397,800.6226806640625,805.8607788085938,804.6520385742188,796.996337890625,734.1392211914062
2023-10-11 16:06:46.420938,805.8607788085938,807.4725341796875,801.8314819335938,796.996337890625,857.4359130859375
2023-10-11 16:06:46.465306,799.4139404296875,801.025634765625,796.1904907226562,795.7875366210938,792.1611938476562
2023-10-11 16:06:46.466801,795.7875366210938,800.2197875976562,799.010986328125,794.5787353515625,719.2307739257812
2023-10-11 16:06:46.468260,784.5054931640625,801.8314819335938,804.6520385742188,800.2197875976562,716.4102783203125
2023-10-11 16:06:46.469752,780.0732421875,794.1758422851562,805.8607788085938,801.8314819335938,724.06591796875
2023-10-11 16:06:46.471285,780.879150390625,791.7582397460938,805.054931640625,810.6959838867188,737.7655639648438
2023-10-11 16:06:46.472912,777.6557006835938,799.8168334960938,805.054931640625,823.5897216796875,757.912109375
2023-10-11 16:06:46.474434,778.05859375,805.4578857421875,805.8607788085938,809.4871826171875,819.5604248046875
2023-10-11 16:06:46.476004,783.2966918945312,805.054931640625,805.8607788085938,801.4285888671875,933.5897216796875
2023-10-11 16:06:46.477431,788.5347900390625,803.040283203125,804.6520385742188,806.6666870117188,833.6630249023438
2023-10-11 16:06:46.478880,794.5787353515625,799.4139404296875,801.4285888671875,789.3406372070312,733.7362670898438
2023-10-11 16:06:46.480532,796.996337890625,797.3992919921875,799.8168334960938,782.087890625,799.4139404296875
2023-10-11 16:06:46.482008,798.6080322265625,802.2344360351562,803.8461303710938,793.7728881835938,817.1428833007812
2023-10-11 16:06:46.504356,802.2344360351562,802.2344360351562,805.4578857421875,804.6520385742188,711.97802734375
2023-10-11 16:06:46.506017,797.8021850585938,800.2197875976562,803.040283203125,800.6226806640625,677.7289428710938
2023-10-11 16:06:46.507827,795.3846435546875,799.8168334960938,796.996337890625,799.010986328125,778.8644409179688
2023-10-11 16:06:46.509755,795.7875366210938,802.2344360351562,794.981689453125,807.069580078125,807.4725341796875
2023-10-11 16:06:46.511090,792.967041015625,802.6373901367188,798.2051391601562,800.2197875976562,713.99267578125
2023-10-11 16:06:46.521384,798.2051391601562,803.040283203125,794.1758422851562,801.025634765625,736.5567626953125
2023-10-11 16:06:46.522665,809.89013671875,808.6813354492188,788.1318969726562,816.7399291992188,995.2380981445312
2023-10-11 16:06:46.524022,799.4139404296875,809.084228515625,796.996337890625,817.94873046875,1008.1318969726562
2023-10-11 16:06:46.526183,786.923095703125,803.8461303710938,806.2637329101562,814.7252807617188,774.029296875
2023-10-11 16:06:46.528473,790.952392578125,800.6226806640625,812.3076782226562,823.99267578125,730.10986328125
2023-10-11 16:06:46.530402,796.1904907226562,801.025634765625,815.93408203125,812.3076782226562,795.7875366210938
2023-10-11 16:06:46.531772,805.4578857421875,794.1758422851562,816.7399291992188,812.3076782226562,766.3735961914062
2023-10-11 16:06:46.563118,801.8314819335938,786.923095703125,816.7399291992188,805.4578857421875,739.3773193359375
2023-10-11 16:06:46.564386,804.2490844726562,787.3259887695312,817.94873046875,801.4285888671875,790.5494384765625
2023-10-11 16:06:46.565604,806.6666870117188,788.937744140625,820.7692260742188,815.5311279296875,849.7802124023438
2023-10-11 16:06:46.566660,793.3699340820312,783.6996459960938,816.3369750976562,803.8461303710938,794.1758422851562
2023-10-11 16:06:46.572933,801.025634765625,784.1025390625,814.7252807617188,797.8021850585938,680.952392578125
2023-10-11 16:06:46.575050,811.098876953125,789.3406372070312,815.5311279296875,811.098876953125,857.032958984375
2023-10-11 16:06:46.576850,811.90478515625,786.923095703125,810.2930297851562,817.5457763671875,1141.098876953125
2023-10-11 16:06:46.578216,805.054931640625,785.7142944335938,807.069580078125,820.7692260742188,905.3846435546875
2023-10-11 16:06:46.579535,797.3992919921875,789.3406372070312,808.2783813476562,819.5604248046875,701.5018310546875
2023-10-11 16:06:46.580711,807.4725341796875,790.952392578125,809.084228515625,824.3956298828125,776.0439453125
2023-10-11 16:06:46.581958,816.3369750976562,788.5347900390625,809.89013671875,834.8717651367188,811.098876953125
2023-10-11 16:06:46.582979,819.96337890625,788.937744140625,809.084228515625,833.2600708007812,767.5823974609375
2023-10-11 16:06:46.601083,811.098876953125,792.967041015625,809.084228515625,828.4249267578125,742.6007080078125
2023-10-11 16:06:46.602253,804.2490844726562,794.5787353515625,809.084228515625,819.96337890625,830.03662109375
2023-10-11 16:06:46.603434,809.084228515625,798.6080322265625,807.069580078125,807.87548828125,794.1758422851562
2023-10-11 16:06:46.604660,814.3223266601562,799.010986328125,807.87548828125,805.4578857421875,710.3662719726562
2023-10-11 16:06:46.605813,813.113525390625,798.6080322265625,805.8607788085938,808.2783813476562,747.4359130859375
2023-10-11 16:06:46.607121,806.2637329101562,800.2197875976562,808.6813354492188,817.5457763671875,885.6410522460938
2023-10-11 16:06:46.608404,800.2197875976562,801.8314819335938,812.7106323242188,815.93408203125,887.2527465820312
2023-10-11 16:06:46.616174,799.4139404296875,801.025634765625,810.6959838867188,806.2637329101562,716.8131713867188
2023-10-11 16:06:46.617398,792.1611938476562,795.3846435546875,805.8607788085938,802.2344360351562,734.1392211914062
2023-10-11 16:06:46.618640,794.981689453125,795.3846435546875,796.996337890625,794.5787353515625,940.03662109375
2023-10-11 16:06:46.619861,806.6666870117188,801.8314819335938,799.8168334960938,797.8021850585938,862.2710571289062
2023-10-11 16:06:46.621203,799.4139404296875,798.6080322265625,803.8461303710938,790.1465454101562,671.2820434570312
2023-10-11 16:06:46.628157,794.1758422851562,799.010986328125,804.2490844726562,781.6849975585938,653.1502075195312
2023-10-11 16:06:46.629366,803.4432373046875,803.040283203125,807.87548828125,797.8021850585938,738.1685180664062
2023-10-11 16:06:46.630625,803.8461303710938,804.6520385742188,804.6520385742188,806.2637329101562,786.923095703125
2023-10-11 16:06:46.631801,803.8461303710938,810.6959838867188,802.6373901367188,803.8461303710938,723.6630249023438
2023-10-11 16:06:46.633023,809.084228515625,815.1282348632812,799.8168334960938,799.8168334960938,801.8314819335938
2023-10-11 16:06:46.634191,810.6959838867188,812.3076782226562,793.3699340820312,797.8021850585938,992.8204956054688
2023-10-11 16:06:46.635425,802.2344360351562,808.2783813476562,790.952392578125,797.3992919921875,863.076904296875
2023-10-11 16:06:46.636638,798.2051391601562,809.89013671875,790.1465454101562,805.4578857421875,758.3150024414062
2023-10-11 16:06:46.637892,806.2637329101562,813.113525390625,796.1904907226562,815.5311279296875,851.7948608398438
2023-10-11 16:06:46.639060,803.4432373046875,811.098876953125,802.2344360351562,809.89013671875,924.3223266601562
2023-10-11 16:06:46.640247,803.4432373046875,812.7106323242188,799.4139404296875,801.025634765625,761.1355590820312
2023-10-11 16:06:46.641396,796.996337890625,813.91943359375,797.3992919921875,804.2490844726562,713.1868286132812
2023-10-11 16:06:46.695395,793.3699340820312,812.7106323242188,793.7728881835938,807.87548828125,817.1428833007812
2023-10-11 16:06:46.696530,798.2051391601562,811.098876953125,790.5494384765625,810.2930297851562,798.6080322265625
2023-10-11 16:06:46.697826,778.4615478515625,806.6666870117188,794.5787353515625,797.3992919921875,712.3809814453125
2023-10-11 16:06:46.699109,762.7472534179688,801.8314819335938,796.5933837890625,797.3992919921875,661.2088012695312
2023-10-11 16:06:46.700282,775.6410522460938,801.025634765625,794.1758422851562,803.4432373046875,713.1868286132812
2023-10-11 16:06:46.702342,789.7435913085938,806.2637329101562,796.1904907226562,797.8021850585938,819.96337890625
2023-10-11 16:06:46.705657,791.3552856445312,805.4578857421875,799.010986328125,805.054931640625,824.7985229492188
2023-10-11 16:06:46.706857,785.3113403320312,801.4285888671875,793.3699340820312,803.8461303710938,807.4725341796875
2023-10-11 16:06:46.708153,784.5054931640625,803.4432373046875,792.5640869140625,805.4578857421875,906.1904907226562
2023-10-11 16:06:46.718382,794.5787353515625,803.4432373046875,794.5787353515625,810.2930297851562,878.7911987304688
2023-10-11 16:06:46.719704,802.6373901367188,800.2197875976562,794.5787353515625,801.025634765625,739.3773193359375
2023-10-11 16:06:46.721770,799.8168334960938,799.010986328125,793.7728881835938,798.2051391601562,750.2564086914062
2023-10-11 16:06:46.734171,795.7875366210938,803.040283203125,795.3846435546875,801.8314819335938,824.3956298828125
2023-10-11 16:06:46.735313,792.1611938476562,809.084228515625,798.2051391601562,797.3992919921875,734.1392211914062
2023-10-11 16:06:46.736632,788.5347900390625,810.6959838867188,799.8168334960938,793.7728881835938,673.6996459960938
2023-10-11 16:06:46.737951,784.908447265625,806.6666870117188,802.2344360351562,798.6080322265625,761.94140625
2023-10-11 16:06:46.739373,782.087890625,805.4578857421875,802.2344360351562,800.2197875976562,824.3956298828125
2023-10-11 16:06:46.745860,786.1171875,803.040283203125,799.8168334960938,801.8314819335938,865.8974609375
2023-10-11 16:06:46.747135,783.2966918945312,801.025634765625,793.7728881835938,795.7875366210938,842.12451171875
2023-10-11 16:06:46.748582,788.937744140625,805.4578857421875,796.996337890625,796.996337890625,791.3552856445312
2023-10-11 16:06:46.750055,806.2637329101562,807.069580078125,802.2344360351562,805.4578857421875,951.7216186523438
2023-10-11 16:06:46.751293,799.010986328125,806.2637329101562,801.4285888671875,804.6520385742188,927.94873046875
2023-10-11 16:06:46.753941,791.7582397460938,809.89013671875,797.8021850585938,802.6373901367188,778.05859375
2023-10-11 16:06:46.755229,801.025634765625,809.4871826171875,800.2197875976562,806.2637329101562,751.8681030273438
2023-10-11 16:06:46.794667,794.5787353515625,806.2637329101562,800.2197875976562,803.4432373046875,809.89013671875
2023-10-11 16:06:46.795961,798.2051391601562,808.2783813476562,798.6080322265625,796.1904907226562,739.7802124023438
2023-10-11 16:06:46.797550,807.4725341796875,811.098876953125,796.5933837890625,810.2930297851562,722.05126953125
2023-10-11 16:06:46.798790,790.1465454101562,809.4871826171875,796.5933837890625,796.5933837890625,772.4176025390625
2023-10-11 16:06:46.800137,787.7289428710938,810.6959838867188,803.040283203125,793.3699340820312,728.901123046875
2023-10-11 16:06:46.802094,792.5640869140625,812.3076782226562,805.4578857421875,799.8168334960938,748.6447143554688
2023-10-11 16:06:46.803315,794.981689453125,809.084228515625,801.4285888671875,790.5494384765625,820.3662719726562
2023-10-11 16:06:46.805810,804.2490844726562,811.90478515625,801.025634765625,802.6373901367188,933.5897216796875
2023-10-11 16:06:46.807247,794.5787353515625,810.2930297851562,803.4432373046875,805.4578857421875,919.4871826171875
2023-10-11 16:06:46.808537,787.7289428710938,809.4871826171875,801.025634765625,802.2344360351562,718.4249267578125
2023-10-11 16:06:46.810180,788.937744140625,810.2930297851562,792.967041015625,793.7728881835938,696.2637329101562
2023-10-11 16:06:46.824368,791.7582397460938,811.098876953125,793.7728881835938,789.3406372070312,781.2820434570312
2023-10-11 16:06:46.846038,795.7875366210938,813.5164794921875,804.2490844726562,799.010986328125,872.7472534179688
2023-10-11 16:06:46.847375,800.6226806640625,814.7252807617188,805.4578857421875,795.7875366210938,839.7069702148438
2023-10-11 16:06:46.848546,796.1904907226562,815.5311279296875,799.4139404296875,784.5054931640625,781.6849975585938
2023-10-11 16:06:46.849643,787.3259887695312,812.3076782226562,797.8021850585938,782.087890625,801.8314819335938
2023-10-11 16:06:46.851014,789.7435913085938,805.4578857421875,795.7875366210938,784.1025390625,728.4981689453125
2023-10-11 16:06:46.853387,792.967041015625,801.025634765625,793.7728881835938,783.2966918945312,803.8461303710938
2023-10-11 16:06:46.855037,789.7435913085938,803.8461303710938,799.8168334960938,786.923095703125,969.4505615234375
2023-10-11 16:06:46.861221,780.4761962890625,803.040283203125,802.2344360351562,799.4139404296875,1049.230712890625
2023-10-11 16:06:46.862527,778.05859375,799.4139404296875,802.2344360351562,792.1611938476562,812.3076782226562
2023-10-11 16:06:46.864318,789.7435913085938,803.040283203125,801.025634765625,790.1465454101562,655.970703125
2023-10-11 16:06:46.865596,798.2051391601562,802.6373901367188,796.5933837890625,791.7582397460938,755.091552734375
2023-10-11 16:06:46.868362,794.5787353515625,807.069580078125,799.4139404296875,785.7142944335938,782.087890625
2023-10-11 16:06:46.895837,791.7582397460938,817.5457763671875,803.040283203125,790.952392578125,720.8424682617188
2023-10-11 16:06:46.897485,787.7289428710938,810.2930297851562,802.6373901367188,790.1465454101562,694.2490844726562
2023-10-11 16:06:46.898844,789.7435913085938,802.2344360351562,803.8461303710938,788.937744140625,735.3479614257812
2023-10-11 16:06:46.900499,799.010986328125,805.8607788085938,807.4725341796875,799.4139404296875,796.1904907226562
2023-10-11 16:06:46.901581,810.2930297851562,802.2344360351562,808.2783813476562,804.6520385742188,767.9853515625
2023-10-11 16:06:46.904144,801.4285888671875,806.6666870117188,798.2051391601562,794.1758422851562,733.7362670898438
2023-10-11 16:06:46.909535,772.0146484375,813.5164794921875,798.6080322265625,782.893798828125,916.6666870117188
2023-10-11 16:06:46.910762,776.0439453125,809.084228515625,802.6373901367188,786.5201416015625,956.5567626953125
2023-10-11 16:06:46.912002,793.7728881835938,812.7106323242188,799.8168334960938,790.5494384765625,753.8828125
2023-10-11 16:06:46.913184,788.937744140625,817.1428833007812,798.2051391601562,774.8351440429688,739.3773193359375
2023-10-11 16:06:46.914525,789.3406372070312,818.3516235351562,796.996337890625,778.05859375,850.5860595703125
2023-10-11 16:06:46.915941,782.4908447265625,819.1575317382812,796.5933837890625,780.0732421875,749.8534545898438
2023-10-11 16:06:46.927219,790.5494384765625,821.5750732421875,795.3846435546875,780.4761962890625,648.3150024414062
2023-10-11 16:06:46.934994,801.025634765625,822.7838745117188,789.3406372070312,785.3113403320312,724.8717651367188
2023-10-11 16:06:46.936220,794.5787353515625,821.1721801757812,785.7142944335938,767.9853515625,785.3113403320312
2023-10-11 16:06:46.938337,805.4578857421875,819.1575317382812,786.923095703125,774.8351440429688,738.1685180664062
2023-10-11 16:06:46.941247,812.7106323242188,819.96337890625,786.5201416015625,785.7142944335938,673.2966918945312
2023-10-11 16:06:46.942507,808.2783813476562,827.6190185546875,789.3406372070312,787.7289428710938,749.8534545898438
2023-10-11 16:06:46.943676,807.87548828125,830.4395751953125,788.1318969726562,790.952392578125,936.4102783203125
2023-10-11 16:06:46.945066,805.8607788085938,823.99267578125,786.923095703125,790.1465454101562,967.4359130859375
2023-10-11 16:06:46.946609,800.6226806640625,822.3809814453125,791.7582397460938,792.5640869140625,801.8314819335938
2023-10-11 16:06:46.947923,800.2197875976562,825.2014770507812,795.7875366210938,799.4139404296875,773.6264038085938
2023-10-11 16:06:46.949514,800.2197875976562,823.5897216796875,794.981689453125,800.6226806640625,925.1282348632812
2023-10-11 16:06:46.950700,803.040283203125,819.5604248046875,788.937744140625,790.1465454101562,796.5933837890625
2023-10-11 16:06:46.960631,799.4139404296875,810.2930297851562,785.3113403320312,780.0732421875,726.08056640625
2023-10-11 16:06:46.961930,792.1611938476562,809.4871826171875,784.908447265625,783.2966918945312,797.8021850585938
2023-10-11 16:06:46.963328,791.3552856445312,814.3223266601562,785.3113403320312,786.5201416015625,772.0146484375
2023-10-11 16:06:46.964504,786.923095703125,811.098876953125,786.923095703125,776.0439453125,718.8278198242188
2023-10-11 16:06:46.965532,789.3406372070312,811.098876953125,790.952392578125,786.5201416015625,709.5604248046875
2023-10-11 16:06:46.966558,799.8168334960938,812.7106323242188,791.3552856445312,799.010986328125,911.025634765625
2023-10-11 16:06:46.967570,796.1904907226562,807.4725341796875,791.7582397460938,780.879150390625,960.1831665039062
2023-10-11 16:06:46.968860,792.1611938476562,805.4578857421875,794.5787353515625,775.2380981445312,745.018310546875
2023-10-11 16:06:46.970112,788.5347900390625,809.084228515625,796.1904907226562,776.4468994140625,701.098876953125
2023-10-11 16:06:46.971528,785.7142944335938,811.5018310546875,794.981689453125,783.2966918945312,940.03662109375
2023-10-11 16:06:46.972831,788.937744140625,812.3076782226562,796.1904907226562,784.1025390625,969.4505615234375
2023-10-11 16:06:46.974358,789.3406372070312,810.6959838867188,799.010986328125,774.4322509765625,779.2673950195312
2023-10-11 16:06:47.028313,781.6849975585938,807.4725341796875,793.7728881835938,775.6410522460938,743.8095092773438
2023-10-11 16:06:47.029657,778.05859375,809.4871826171875,792.967041015625,783.2966918945312,747.8388061523438
2023-10-11 16:06:47.030675,779.6703491210938,809.084228515625,794.5787353515625,782.087890625,734.945068359375
2023-10-11 16:06:47.040181,787.7289428710938,806.2637329101562,790.952392578125,782.4908447265625,736.5567626953125
2023-10-11 16:06:47.041263,786.923095703125,807.4725341796875,792.5640869140625,786.1171875,774.4322509765625
2023-10-11 16:06:47.042869,791.3552856445312,809.89013671875,796.5933837890625,788.5347900390625,863.4798583984375
2023-10-11 16:06:47.044320,791.7582397460938,809.89013671875,790.5494384765625,791.7582397460938,823.5897216796875
2023-10-11 16:06:47.046367,792.5640869140625,807.87548828125,790.1465454101562,794.5787353515625,695.8607788085938
2023-10-11 16:06:47.049227,798.6080322265625,807.069580078125,797.8021850585938,795.3846435546875,778.8644409179688
2023-10-11 16:06:47.050766,787.3259887695312,807.4725341796875,794.981689453125,792.1611938476562,978.3150024414062
2023-10-11 16:06:47.053641,785.3113403320312,807.069580078125,794.981689453125,789.7435913085938,796.5933837890625
2023-10-11 16:06:47.056897,794.1758422851562,808.6813354492188,796.1904907226562,792.1611938476562,674.908447265625
2023-10-11 16:06:47.069372,797.3992919921875,811.098876953125,796.5933837890625,793.3699340820312,806.2637329101562
2023-10-11 16:06:47.072357,802.6373901367188,805.4578857421875,796.1904907226562,785.3113403320312,820.7692260742188
2023-10-11 16:06:47.074023,812.3076782226562,795.3846435546875,794.5787353515625,790.1465454101562,751.4652099609375
2023-10-11 16:06:47.075564,821.1721801757812,800.6226806640625,793.7728881835938,790.952392578125,740.5860595703125
2023-10-11 16:06:47.077511,813.5164794921875,810.2930297851562,783.6996459960938,785.3113403320312,766.7765502929688
2023-10-11 16:06:47.079193,799.010986328125,805.8607788085938,782.4908447265625,781.2820434570312,799.010986328125
2023-10-11 16:06:47.080498,802.6373901367188,800.6226806640625,796.1904907226562,785.3113403320312,868.7179565429688
2023-10-11 16:06:47.085760,816.7399291992188,803.8461303710938,803.4432373046875,811.5018310546875,819.5604248046875
2023-10-11 16:06:47.086766,801.4285888671875,804.2490844726562,801.8314819335938,809.89013671875,892.4908447265625
2023-10-11 16:06:47.087665,785.7142944335938,804.2490844726562,796.5933837890625,797.3992919921875,911.025634765625
2023-10-11 16:06:47.088626,795.7875366210938,806.6666870117188,793.3699340820312,808.6813354492188,735.3479614257812
2023-10-11 16:06:47.089667,797.8021850585938,805.8607788085938,790.952392578125,811.5018310546875,734.945068359375
2023-10-11 16:06:47.127058,801.8314819335938,806.2637329101562,787.7289428710938,805.8607788085938,802.2344360351562
2023-10-11 16:06:47.127937,811.90478515625,809.084228515625,784.908447265625,819.1575317382812,787.7289428710938
2023-10-11 16:06:47.128940,816.7399291992188,810.6959838867188,786.1171875,832.4542236328125,784.5054931640625
2023-10-11 16:06:47.130317,831.2454223632812,813.113525390625,788.1318969726562,836.08056640625,791.3552856445312
2023-10-11 16:06:47.131621,838.09521484375,810.6959838867188,787.3259887695312,833.6630249023438,818.7545776367188
2023-10-11 16:06:47.140126,844.1392211914062,807.87548828125,790.5494384765625,836.886474609375,839.7069702148438
2023-10-11 16:06:47.141816,842.930419921875,809.084228515625,790.952392578125,846.5567626953125,771.2088012695312
2023-10-11 16:06:47.143150,831.2454223632812,809.89013671875,790.1465454101562,845.3479614257812,772.8204956054688
2023-10-11 16:06:47.145552,836.886474609375,812.3076782226562,794.981689453125,846.959716796875,913.040283203125
2023-10-11 16:06:47.147166,846.5567626953125,809.4871826171875,796.5933837890625,844.945068359375,803.8461303710938
2023-10-11 16:06:47.149287,842.930419921875,805.8607788085938,793.3699340820312,835.6776733398438,721.2454223632812
2023-10-11 16:06:47.150408,836.08056640625,804.6520385742188,791.7582397460938,830.4395751953125,793.3699340820312
2023-10-11 16:06:47.162146,827.6190185546875,803.8461303710938,791.3552856445312,834.4688720703125,794.981689453125
2023-10-11 16:06:47.163673,821.5750732421875,808.2783813476562,790.5494384765625,826.4102783203125,700.6959838867188
2023-10-11 16:06:47.165396,825.2014770507812,804.6520385742188,788.5347900390625,817.5457763671875,703.91943359375
2023-10-11 16:06:47.166735,823.5897216796875,796.996337890625,789.7435913085938,819.1575317382812,808.6813354492188
2023-10-11 16:06:47.168264,815.93408203125,795.3846435546875,788.1318969726562,822.3809814453125,811.90478515625
2023-10-11 16:06:47.169918,808.6813354492188,792.967041015625,784.5054931640625,811.90478515625,796.1904907226562
2023-10-11 16:06:47.171657,810.2930297851562,795.3846435546875,784.1025390625,801.025634765625,853.4066162109375
2023-10-11 16:06:47.173020,818.7545776367188,797.3992919921875,787.7289428710938,812.7106323242188,1025.86083984375
2023-10-11 16:06:47.174290,824.3956298828125,796.5933837890625,793.3699340820312,819.5604248046875,1002.4908447265625
2023-10-11 16:06:47.175918,819.5604248046875,798.6080322265625,791.7582397460938,809.084228515625,751.8681030273438
2023-10-11 16:06:47.178231,809.4871826171875,790.952392578125,786.923095703125,807.87548828125,699.084228515625
2023-10-11 16:06:47.179867,807.069580078125,784.5054931640625,787.7289428710938,812.7106323242188,828.8278198242188
2023-10-11 16:06:47.194948,811.5018310546875,788.5347900390625,790.5494384765625,813.91943359375,772.0146484375
2023-10-11 16:06:47.196223,821.1721801757812,797.8021850585938,791.7582397460938,811.5018310546875,709.1575317382812
2023-10-11 16:06:47.197395,823.99267578125,801.025634765625,794.1758422851562,813.91943359375,760.7326049804688
2023-10-11 16:06:47.198236,819.96337890625,792.1611938476562,795.7875366210938,816.3369750976562,733.7362670898438
2023-10-11 16:06:47.199162,816.7399291992188,784.908447265625,789.3406372070312,807.4725341796875,701.5018310546875
2023-10-11 16:06:47.200367,812.7106323242188,784.5054931640625,786.1171875,806.6666870117188,805.8607788085938
2023-10-11 16:06:47.201484,819.5604248046875,786.923095703125,790.1465454101562,817.94873046875,963.8095092773438
2023-10-11 16:06:47.207039,832.4542236328125,792.967041015625,790.952392578125,821.97802734375,1070.5860595703125
2023-10-11 16:06:47.207909,828.8278198242188,788.937744140625,788.1318969726562,819.1575317382812,890.0732421875
2023-10-11 16:06:47.209925,820.7692260742188,782.893798828125,790.952392578125,827.2161254882812,684.981689453125
2023-10-11 16:06:47.210881,823.99267578125,787.7289428710938,795.3846435546875,824.7985229492188,739.7802124023438
2023-10-11 16:06:47.211940,818.7545776367188,787.7289428710938,789.3406372070312,810.2930297851562,801.025634765625
2023-10-11 16:06:47.262747,813.91943359375,784.1025390625,784.5054931640625,806.6666870117188,744.6153564453125
2023-10-11 16:06:47.264454,813.113525390625,782.893798828125,789.3406372070312,809.4871826171875,725.6776733398438
2023-10-11 16:06:47.266773,813.5164794921875,782.4908447265625,793.3699340820312,816.7399291992188,760.3296508789062
2023-10-11 16:06:47.268348,812.7106323242188,784.5054931640625,790.952392578125,814.3223266601562,748.2417602539062
2023-10-11 16:06:47.269538,810.2930297851562,784.1025390625,788.1318969726562,807.4725341796875,755.4945068359375
2023-10-11 16:06:47.270716,811.90478515625,786.5201416015625,794.5787353515625,819.5604248046875,832.8571166992188
2023-10-11 16:06:47.271912,807.4725341796875,784.1025390625,796.996337890625,819.1575317382812,993.2234497070312
2023-10-11 16:06:47.273534,800.6226806640625,779.6703491210938,795.7875366210938,808.6813354492188,958.974365234375
2023-10-11 16:06:47.274482,805.4578857421875,778.05859375,793.7728881835938,804.2490844726562,710.3662719726562
2023-10-11 16:06:47.276145,814.3223266601562,778.05859375,789.7435913085938,803.040283203125,713.1868286132812
2023-10-11 16:06:47.277818,811.90478515625,778.4615478515625,787.3259887695312,808.2783813476562,868.7179565429688
2023-10-11 16:06:47.279379,805.054931640625,773.2234497070312,792.967041015625,812.7106323242188,838.4981689453125
2023-10-11 16:06:47.297085,801.025634765625,774.8351440429688,796.1904907226562,809.084228515625,692.6373901367188
2023-10-11 16:06:47.297952,799.4139404296875,782.087890625,795.3846435546875,807.4725341796875,707.1428833007812
2023-10-11 16:06:47.298871,805.8607788085938,782.4908447265625,798.2051391601562,814.7252807617188,833.2600708007812
2023-10-11 16:06:47.299727,810.6959838867188,779.6703491210938,797.8021850585938,814.7252807617188,799.010986328125
2023-10-11 16:06:47.300610,807.87548828125,780.879150390625,794.5787353515625,807.069580078125,740.989013671875
2023-10-11 16:06:47.301655,806.6666870117188,778.05859375,795.7875366210938,810.6959838867188,846.959716796875
2023-10-11 16:06:47.304151,805.054931640625,769.1941528320312,796.996337890625,819.1575317382812,1028.6812744140625
2023-10-11 16:06:47.306162,813.113525390625,769.1941528320312,797.8021850585938,810.2930297851562,865.8974609375
2023-10-11 16:06:47.308663,817.5457763671875,771.2088012695312,803.4432373046875,805.8607788085938,730.915771484375
2023-10-11 16:06:47.315805,805.8607788085938,771.6116943359375,800.2197875976562,814.3223266601562,781.6849975585938
2023-10-11 16:06:47.316711,801.8314819335938,772.8204956054688,789.3406372070312,812.7106323242188,757.106201171875
2023-10-11 16:06:47.317548,806.6666870117188,772.4176025390625,791.7582397460938,809.084228515625,713.99267578125
2023-10-11 16:06:47.362444,811.5018310546875,771.6116943359375,794.981689453125,814.7252807617188,719.2307739257812
2023-10-11 16:06:47.364478,804.6520385742188,768.7911987304688,791.3552856445312,821.1721801757812,840.5128173828125
