Timestamp,TP9,AF7,AF8,TP10,AUX
2023-10-11 15:58:30.414646,783.6996459960938,817.94873046875,799.010986328125,782.893798828125,707.94873046875
2023-10-11 15:58:30.416572,790.1465454101562,813.91943359375,801.4285888671875,796.996337890625,813.91943359375
2023-10-11 15:58:30.418744,796.996337890625,817.5457763671875,806.2637329101562,806.6666870117188,882.0146484375
2023-10-11 15:58:30.421083,796.996337890625,819.5604248046875,806.2637329101562,801.8314819335938,815.93408203125
2023-10-11 15:58:30.424593,784.908447265625,815.93408203125,802.2344360351562,780.879150390625,671.2820434570312
2023-10-11 15:58:30.430290,785.3113403320312,814.3223266601562,801.025634765625,775.6410522460938,736.5567626953125
2023-10-11 15:58:30.431824,796.1904907226562,815.93408203125,800.2197875976562,789.3406372070312,996.8497924804688
2023-10-11 15:58:30.433840,791.3552856445312,811.098876953125,798.2051391601562,782.893798828125,892.087890625
2023-10-11 15:58:30.435129,782.4908447265625,804.6520385742188,801.8314819335938,777.6557006835938,729.7069702148438
2023-10-11 15:58:30.446994,783.2966918945312,807.4725341796875,804.6520385742188,792.1611938476562,767.5823974609375
2023-10-11 15:58:30.448602,786.923095703125,807.87548828125,805.054931640625,786.923095703125,752.6740112304688
2023-10-11 15:58:30.452700,789.7435913085938,803.4432373046875,801.8314819335938,783.6996459960938,733.3333129882812
2023-10-11 15:58:30.456437,792.1611938476562,806.6666870117188,801.8314819335938,800.6226806640625,839.3040161132812
2023-10-11 15:58:30.460614,785.7142944335938,807.87548828125,802.6373901367188,799.010986328125,857.032958984375
2023-10-11 15:58:30.461923,785.7142944335938,811.5018310546875,801.4285888671875,795.3846435546875,762.3442993164062
2023-10-11 15:58:30.463269,795.3846435546875,816.3369750976562,802.6373901367188,802.6373901367188,768.3883056640625
2023-10-11 15:58:30.464659,801.8314819335938,812.7106323242188,801.8314819335938,801.8314819335938,816.7399291992188
2023-10-11 15:58:30.465921,797.3992919921875,808.6813354492188,798.6080322265625,799.4139404296875,960.1831665039062
2023-10-11 15:58:30.467162,790.952392578125,809.89013671875,796.1904907226562,791.7582397460938,936.8131713867188
2023-10-11 15:58:30.468310,784.1025390625,807.4725341796875,796.996337890625,783.2966918945312,709.96337890625
2023-10-11 15:58:30.469539,786.5201416015625,804.2490844726562,796.996337890625,786.923095703125,683.7728881835938
2023-10-11 15:58:30.470740,796.996337890625,803.4432373046875,796.5933837890625,789.7435913085938,755.4945068359375
2023-10-11 15:58:30.471980,796.1904907226562,800.2197875976562,796.996337890625,780.879150390625,774.8351440429688
2023-10-11 15:58:30.473276,790.5494384765625,804.2490844726562,799.4139404296875,773.6264038085938,740.989013671875
2023-10-11 15:58:30.474472,780.879150390625,808.2783813476562,801.4285888671875,776.8497924804688,723.6630249023438
2023-10-11 15:58:30.475942,777.6557006835938,806.6666870117188,801.025634765625,780.0732421875,759.9267578125
2023-10-11 15:58:30.488179,785.3113403320312,803.040283203125,799.010986328125,776.4468994140625,830.8424682617188
2023-10-11 15:58:30.489348,792.967041015625,805.054931640625,800.6226806640625,783.6996459960938,860.2564086914062
2023-10-11 15:58:30.492597,790.5494384765625,810.2930297851562,803.4432373046875,790.1465454101562,880.4029541015625
2023-10-11 15:58:30.497380,781.2820434570312,807.87548828125,802.6373901367188,784.5054931640625,925.5311279296875
2023-10-11 15:58:30.498436,779.6703491210938,805.8607788085938,801.025634765625,771.2088012695312,747.4359130859375
2023-10-11 15:58:30.499653,780.879150390625,804.6520385742188,803.4432373046875,771.6116943359375,709.1575317382812
2023-10-11 15:58:30.500971,797.3992919921875,803.040283203125,808.2783813476562,791.7582397460938,856.6300659179688
2023-10-11 15:58:30.535308,806.2637329101562,806.2637329101562,799.4139404296875,788.1318969726562,820.7692260742188
2023-10-11 15:58:30.536678,788.5347900390625,809.4871826171875,792.967041015625,768.3883056640625,698.2783813476562
2023-10-11 15:58:30.538046,773.6264038085938,811.5018310546875,796.1904907226562,767.5823974609375,682.1611938476562
2023-10-11 15:58:30.539196,774.4322509765625,817.5457763671875,792.1611938476562,773.6264038085938,791.3552856445312
2023-10-11 15:58:30.540777,775.6410522460938,819.96337890625,789.3406372070312,769.1941528320312,866.3003540039062
2023-10-11 15:58:30.542055,777.2527465820312,821.97802734375,787.3259887695312,770.0,887.6557006835938
2023-10-11 15:58:30.543335,782.893798828125,829.2307739257812,785.3113403320312,772.8204956054688,866.7033081054688
2023-10-11 15:58:30.544568,783.2966918945312,837.2893676757812,787.3259887695312,769.1941528320312,936.8131713867188
2023-10-11 15:58:30.548651,788.1318969726562,845.3479614257812,783.6996459960938,770.8058471679688,919.084228515625
2023-10-11 15:58:30.550237,795.3846435546875,848.5714111328125,781.2820434570312,769.5970458984375,782.4908447265625
2023-10-11 15:58:30.551603,795.7875366210938,846.1538696289062,780.0732421875,770.8058471679688,820.3662719726562
2023-10-11 15:58:30.553108,795.7875366210938,848.974365234375,778.4615478515625,771.2088012695312,851.3919677734375
2023-10-11 15:58:30.566582,799.4139404296875,853.8095092773438,777.6557006835938,770.0,691.025634765625
2023-10-11 15:58:30.568023,801.8314819335938,850.5860595703125,775.2380981445312,776.8497924804688,641.4652099609375
2023-10-11 15:58:30.569323,813.5164794921875,852.6007080078125,776.8497924804688,786.923095703125,745.4212646484375
2023-10-11 15:58:30.572648,818.3516235351562,855.8241577148438,779.6703491210938,788.5347900390625,805.054931640625
2023-10-11 15:58:30.575201,815.1282348632812,855.8241577148438,776.8497924804688,794.5787353515625,757.5091552734375
2023-10-11 15:58:30.576378,813.5164794921875,857.032958984375,777.2527465820312,798.6080322265625,693.040283203125
2023-10-11 15:58:30.580621,822.3809814453125,857.8388061523438,780.879150390625,803.4432373046875,826.4102783203125
2023-10-11 15:58:30.591362,835.2747192382812,858.2417602539062,783.2966918945312,817.1428833007812,1042.783935546875
2023-10-11 15:58:30.592589,838.09521484375,853.4066162109375,784.1025390625,819.1575317382812,981.94140625
2023-10-11 15:58:30.597124,834.4688720703125,851.3919677734375,785.7142944335938,818.7545776367188,762.3442993164062
2023-10-11 15:58:30.599391,823.1868286132812,846.959716796875,785.3113403320312,818.3516235351562,712.7838745117188
2023-10-11 15:58:30.601507,820.3662719726562,842.12451171875,784.1025390625,811.098876953125,753.076904296875
2023-10-11 15:58:30.635440,823.99267578125,840.5128173828125,782.893798828125,807.87548828125,765.5677490234375
2023-10-11 15:58:30.637187,822.7838745117188,835.2747192382812,786.923095703125,808.6813354492188,800.2197875976562
2023-10-11 15:58:30.638862,815.93408203125,834.8717651367188,787.7289428710938,805.8607788085938,801.4285888671875
2023-10-11 15:58:30.640341,813.5164794921875,836.4835205078125,784.1025390625,803.4432373046875,716.4102783203125
2023-10-11 15:58:30.641840,818.3516235351562,834.06591796875,784.5054931640625,805.054931640625,695.8607788085938
2023-10-11 15:58:30.643308,819.1575317382812,832.05126953125,784.908447265625,806.6666870117188,836.886474609375
2023-10-11 15:58:30.645051,812.7106323242188,827.2161254882812,785.3113403320312,803.8461303710938,1070.5860595703125
2023-10-11 15:58:30.646848,802.2344360351562,824.7985229492188,784.1025390625,801.4285888671875,1018.2051391601562
2023-10-11 15:58:30.648384,798.2051391601562,826.00732421875,784.1025390625,799.010986328125,726.886474609375
2023-10-11 15:58:30.649927,799.010986328125,826.00732421875,786.1171875,803.040283203125,725.6776733398438
2023-10-11 15:58:30.651593,801.025634765625,823.99267578125,787.3259887695312,807.069580078125,832.05126953125
2023-10-11 15:58:30.653084,801.8314819335938,817.94873046875,787.3259887695312,799.4139404296875,897.7289428710938
2023-10-11 15:58:30.672597,800.2197875976562,818.3516235351562,786.5201416015625,794.5787353515625,807.069580078125
2023-10-11 15:58:30.673899,797.3992919921875,823.5897216796875,790.5494384765625,799.010986328125,715.2014770507812
2023-10-11 15:58:30.675181,794.981689453125,821.97802734375,792.5640869140625,796.996337890625,764.7619018554688
2023-10-11 15:58:30.676708,796.1904907226562,822.3809814453125,792.5640869140625,790.5494384765625,772.0146484375
2023-10-11 15:58:30.678219,799.4139404296875,820.3662719726562,790.952392578125,788.1318969726562,765.970703125
2023-10-11 15:58:30.679532,798.6080322265625,815.93408203125,791.7582397460938,790.952392578125,849.3773193359375
2023-10-11 15:58:30.681190,787.3259887695312,818.3516235351562,795.7875366210938,796.1904907226562,893.6996459960938
2023-10-11 15:58:30.682423,783.6996459960938,816.7399291992188,794.981689453125,791.3552856445312,711.1721801757812
2023-10-11 15:58:30.684102,793.7728881835938,815.1282348632812,795.3846435546875,794.5787353515625,702.3076782226562
2023-10-11 15:58:30.694516,801.8314819335938,817.1428833007812,799.010986328125,801.8314819335938,857.032958984375
2023-10-11 15:58:30.697158,796.5933837890625,816.3369750976562,798.6080322265625,805.4578857421875,902.1611938476562
2023-10-11 15:58:30.699221,788.5347900390625,813.91943359375,797.8021850585938,803.4432373046875,744.6153564453125
2023-10-11 15:58:30.734239,794.981689453125,814.3223266601562,800.2197875976562,805.054931640625,634.6153564453125
2023-10-11 15:58:30.735213,803.040283203125,812.3076782226562,801.4285888671875,808.2783813476562,744.2124633789062
2023-10-11 15:58:30.736328,803.4432373046875,807.87548828125,801.8314819335938,812.3076782226562,872.7472534179688
2023-10-11 15:58:30.737479,803.4432373046875,808.2783813476562,798.6080322265625,814.7252807617188,804.6520385742188
2023-10-11 15:58:30.738691,801.4285888671875,813.113525390625,798.6080322265625,803.4432373046875,677.7289428710938
2023-10-11 15:58:30.739788,798.2051391601562,813.5164794921875,802.6373901367188,798.6080322265625,830.8424682617188
2023-10-11 15:58:30.741992,799.4139404296875,809.4871826171875,802.6373901367188,798.6080322265625,969.4505615234375
2023-10-11 15:58:30.743183,808.2783813476562,809.4871826171875,803.040283203125,802.2344360351562,839.7069702148438
2023-10-11 15:58:30.744758,806.2637329101562,809.084228515625,803.8461303710938,804.2490844726562,821.97802734375
2023-10-11 15:58:30.746408,799.8168334960938,806.6666870117188,806.2637329101562,797.3992919921875,838.901123046875
2023-10-11 15:58:30.747991,799.010986328125,803.4432373046875,805.8607788085938,794.5787353515625,704.3223266601562
2023-10-11 15:58:30.749426,805.054931640625,808.2783813476562,805.054931640625,807.4725341796875,651.1355590820312
2023-10-11 15:58:30.767335,814.7252807617188,814.3223266601562,804.6520385742188,818.3516235351562,767.1795043945312
2023-10-11 15:58:30.768899,811.5018310546875,810.2930297851562,807.069580078125,811.5018310546875,861.062255859375
2023-10-11 15:58:30.770392,801.4285888671875,806.6666870117188,808.2783813476562,806.2637329101562,793.7728881835938
2023-10-11 15:58:30.772026,794.5787353515625,806.6666870117188,807.4725341796875,805.4578857421875,688.2051391601562
2023-10-11 15:58:30.774030,799.010986328125,807.069580078125,807.4725341796875,811.90478515625,745.018310546875
2023-10-11 15:58:30.775439,807.87548828125,802.6373901367188,807.4725341796875,812.3076782226562,919.4871826171875
2023-10-11 15:58:30.777499,805.8607788085938,798.2051391601562,804.2490844726562,803.8461303710938,938.8278198242188
2023-10-11 15:58:30.779207,799.8168334960938,803.4432373046875,802.2344360351562,801.8314819335938,777.2527465820312
2023-10-11 15:58:30.781241,794.5787353515625,808.2783813476562,801.8314819335938,796.996337890625,718.4249267578125
2023-10-11 15:58:30.783420,790.952392578125,810.2930297851562,801.025634765625,794.1758422851562,899.3406372070312
2023-10-11 15:58:30.785606,791.3552856445312,809.084228515625,799.010986328125,788.937744140625,842.930419921875
2023-10-11 15:58:30.794663,788.5347900390625,803.8461303710938,796.996337890625,784.908447265625,805.8607788085938
2023-10-11 15:58:30.801741,787.7289428710938,801.4285888671875,800.2197875976562,789.3406372070312,857.4359130859375
2023-10-11 15:58:30.803049,781.2820434570312,801.8314819335938,803.040283203125,787.7289428710938,738.1685180664062
2023-10-11 15:58:30.804869,783.6996459960938,802.2344360351562,803.4432373046875,786.923095703125,670.879150390625
2023-10-11 15:58:30.806551,790.952392578125,803.040283203125,803.8461303710938,790.952392578125,773.2234497070312
2023-10-11 15:58:30.808171,785.7142944335938,803.4432373046875,802.2344360351562,794.981689453125,863.4798583984375
2023-10-11 15:58:30.810350,778.4615478515625,805.4578857421875,801.025634765625,792.1611938476562,819.5604248046875
2023-10-11 15:58:30.811868,774.4322509765625,802.2344360351562,799.010986328125,785.7142944335938,743.003662109375
2023-10-11 15:58:30.813671,776.8497924804688,797.8021850585938,796.996337890625,783.2966918945312,673.6996459960938
2023-10-11 15:58:30.815500,782.087890625,797.8021850585938,796.1904907226562,779.6703491210938,893.6996459960938
2023-10-11 15:58:30.817395,784.5054931640625,800.2197875976562,798.6080322265625,784.908447265625,991.6116943359375
2023-10-11 15:58:30.819792,778.4615478515625,799.8168334960938,802.2344360351562,790.5494384765625,767.9853515625
2023-10-11 15:58:30.822765,770.4029541015625,798.6080322265625,800.2197875976562,786.1171875,696.2637329101562
2023-10-11 15:58:30.870108,770.0,799.010986328125,798.2051391601562,784.1025390625,751.4652099609375
2023-10-11 15:58:30.871266,772.8204956054688,798.2051391601562,798.6080322265625,792.967041015625,743.4066162109375
2023-10-11 15:58:30.872636,785.7142944335938,799.8168334960938,797.8021850585938,794.1758422851562,810.2930297851562
2023-10-11 15:58:30.874371,786.1171875,799.010986328125,798.6080322265625,788.1318969726562,872.7472534179688
2023-10-11 15:58:30.875861,774.8351440429688,794.1758422851562,797.8021850585938,781.6849975585938,788.5347900390625
2023-10-11 15:58:30.877015,773.2234497070312,798.6080322265625,795.7875366210938,787.7289428710938,738.974365234375
2023-10-11 15:58:30.878473,785.3113403320312,801.4285888671875,796.996337890625,797.8021850585938,740.989013671875
2023-10-11 15:58:30.881374,798.6080322265625,797.8021850585938,796.996337890625,799.4139404296875,876.7765502929688
2023-10-11 15:58:30.882728,788.5347900390625,793.3699340820312,796.5933837890625,798.6080322265625,1066.5567626953125
2023-10-11 15:58:30.884202,778.05859375,792.5640869140625,796.996337890625,793.3699340820312,837.2893676757812
2023-10-11 15:58:30.885830,786.923095703125,793.3699340820312,797.3992919921875,797.3992919921875,653.1502075195312
2023-10-11 15:58:30.887620,794.5787353515625,794.5787353515625,800.2197875976562,805.054931640625,760.3296508789062
2023-10-11 15:58:30.903891,800.2197875976562,795.3846435546875,803.040283203125,809.89013671875,851.7948608398438
2023-10-11 15:58:30.908115,799.8168334960938,794.981689453125,802.6373901367188,811.90478515625,809.084228515625
2023-10-11 15:58:30.909213,797.3992919921875,797.8021850585938,802.6373901367188,802.6373901367188,704.3223266601562
2023-10-11 15:58:30.910442,798.6080322265625,795.3846435546875,799.8168334960938,792.967041015625,689.4139404296875
2023-10-11 15:58:30.912772,806.2637329101562,794.981689453125,796.1904907226562,790.5494384765625,724.4688720703125
2023-10-11 15:58:30.914209,818.3516235351562,801.8314819335938,801.025634765625,799.4139404296875,826.00732421875
2023-10-11 15:58:30.915169,813.91943359375,799.4139404296875,800.2197875976562,803.040283203125,903.7728881835938
2023-10-11 15:58:30.917336,800.6226806640625,796.1904907226562,798.2051391601562,797.8021850585938,937.2161254882812
2023-10-11 15:58:30.918262,794.1758422851562,796.5933837890625,800.6226806640625,794.5787353515625,809.89013671875
2023-10-11 15:58:30.919153,788.937744140625,796.1904907226562,800.2197875976562,797.8021850585938,650.7326049804688
2023-10-11 15:58:30.920092,784.908447265625,796.5933837890625,800.2197875976562,814.7252807617188,773.6264038085938
2023-10-11 15:58:30.921403,778.8644409179688,794.1758422851562,801.4285888671875,823.99267578125,873.1502075195312
2023-10-11 15:58:30.967788,774.029296875,794.1758422851562,803.8461303710938,818.7545776367188,792.5640869140625
2023-10-11 15:58:30.969139,776.0439453125,798.2051391601562,805.4578857421875,810.6959838867188,696.2637329101562
2023-10-11 15:58:30.970458,780.4761962890625,802.2344360351562,807.069580078125,810.6959838867188,703.113525390625
2023-10-11 15:58:30.971652,783.6996459960938,801.8314819335938,806.6666870117188,812.7106323242188,871.1355590820312
2023-10-11 15:58:30.973328,788.1318969726562,799.4139404296875,804.6520385742188,802.6373901367188,871.5384521484375
2023-10-11 15:58:30.974417,789.3406372070312,798.6080322265625,801.8314819335938,799.4139404296875,819.1575317382812
2023-10-11 15:58:30.976224,783.6996459960938,794.5787353515625,803.040283203125,799.8168334960938,865.091552734375
2023-10-11 15:58:30.977295,786.5201416015625,792.5640869140625,803.8461303710938,808.2783813476562,988.3883056640625
2023-10-11 15:58:30.978291,790.952392578125,797.3992919921875,802.6373901367188,804.6520385742188,873.1502075195312
2023-10-11 15:58:30.979352,792.1611938476562,800.2197875976562,805.054931640625,795.7875366210938,791.7582397460938
2023-10-11 15:58:30.980546,789.3406372070312,795.7875366210938,806.6666870117188,798.2051391601562,790.952392578125
2023-10-11 15:58:30.981953,780.879150390625,789.7435913085938,801.025634765625,787.3259887695312,679.7435913085938
2023-10-11 15:58:31.001739,782.087890625,788.1318969726562,794.5787353515625,776.8497924804688,604.3956298828125
2023-10-11 15:58:31.003031,783.2966918945312,790.1465454101562,796.1904907226562,782.893798828125,709.1575317382812
2023-10-11 15:58:31.004228,786.923095703125,794.5787353515625,798.6080322265625,796.996337890625,869.120849609375
2023-10-11 15:58:31.013973,783.6996459960938,796.5933837890625,798.2051391601562,797.8021850585938,859.8534545898438
2023-10-11 15:58:31.016162,773.2234497070312,794.1758422851562,794.1758422851562,786.1171875,726.4835205078125
2023-10-11 15:58:31.018640,774.029296875,791.3552856445312,792.1611938476562,779.6703491210938,678.1318969726562
2023-10-11 15:58:31.020294,780.4761962890625,789.7435913085938,796.1904907226562,790.1465454101562,956.5567626953125
2023-10-11 15:58:31.022014,784.5054931640625,788.937744140625,796.996337890625,795.3846435546875,1067.3626708984375
2023-10-11 15:58:31.025093,783.2966918945312,787.3259887695312,794.981689453125,789.7435913085938,793.7728881835938
2023-10-11 15:58:31.027080,785.3113403320312,787.3259887695312,796.5933837890625,786.5201416015625,672.893798828125
2023-10-11 15:58:31.028745,787.7289428710938,788.937744140625,797.8021850585938,784.908447265625,755.4945068359375
2023-10-11 15:58:31.030269,793.3699340820312,788.5347900390625,792.5640869140625,784.5054931640625,787.7289428710938
2023-10-11 15:58:31.067539,799.4139404296875,788.937744140625,788.5347900390625,790.952392578125,824.3956298828125
2023-10-11 15:58:31.069387,805.8607788085938,794.981689453125,786.5201416015625,802.6373901367188,836.4835205078125
2023-10-11 15:58:31.071068,807.87548828125,796.1904907226562,790.1465454101562,805.054931640625,741.7948608398438
2023-10-11 15:58:31.072999,792.1611938476562,787.7289428710938,800.6226806640625,795.3846435546875,667.2527465820312
2023-10-11 15:58:31.074524,784.5054931640625,781.6849975585938,798.2051391601562,787.3259887695312,711.97802734375
2023-10-11 15:58:31.076425,791.7582397460938,781.2820434570312,792.1611938476562,791.7582397460938,979.9267578125
2023-10-11 15:58:31.078700,785.7142944335938,785.7142944335938,796.1904907226562,793.3699340820312,1133.4432373046875
2023-10-11 15:58:31.080270,776.4468994140625,790.1465454101562,796.5933837890625,785.7142944335938,896.923095703125
2023-10-11 15:58:31.082186,778.8644409179688,789.7435913085938,796.5933837890625,781.6849975585938,676.923095703125
2023-10-11 15:58:31.083909,784.908447265625,789.3406372070312,798.6080322265625,788.937744140625,755.4945068359375
2023-10-11 15:58:31.087019,786.923095703125,786.5201416015625,798.6080322265625,801.025634765625,1027.87548828125
2023-10-11 15:58:31.089608,786.923095703125,786.5201416015625,797.3992919921875,797.8021850585938,878.7911987304688
2023-10-11 15:58:31.109569,784.908447265625,790.1465454101562,796.996337890625,788.1318969726562,654.3589477539062
2023-10-11 15:58:31.111888,782.893798828125,788.937744140625,796.5933837890625,780.4761962890625,689.8168334960938
2023-10-11 15:58:31.113821,787.3259887695312,788.1318969726562,797.3992919921875,785.3113403320312,741.7948608398438
2023-10-11 15:58:31.115255,791.3552856445312,787.3259887695312,796.1904907226562,785.3113403320312,803.8461303710938
2023-10-11 15:58:31.117118,790.952392578125,788.5347900390625,799.4139404296875,784.5054931640625,840.915771484375
2023-10-11 15:58:31.132970,786.5201416015625,791.7582397460938,802.6373901367188,787.7289428710938,857.8388061523438
2023-10-11 15:58:31.136971,782.893798828125,794.981689453125,801.025634765625,781.6849975585938,790.5494384765625
2023-10-11 15:58:31.139279,784.5054931640625,794.981689453125,800.2197875976562,782.087890625,689.4139404296875
2023-10-11 15:58:31.141128,791.7582397460938,791.7582397460938,800.2197875976562,791.7582397460938,809.4871826171875
2023-10-11 15:58:31.143120,793.3699340820312,793.3699340820312,799.010986328125,794.5787353515625,1100.805908203125
2023-10-11 15:58:31.144784,784.1025390625,794.1758422851562,798.6080322265625,795.7875366210938,938.02197265625
2023-10-11 15:58:31.146222,782.893798828125,788.937744140625,799.4139404296875,792.967041015625,616.4835205078125
2023-10-11 15:58:31.155606,792.1611938476562,790.1465454101562,799.010986328125,790.5494384765625,657.9853515625
2023-10-11 15:58:31.157662,792.5640869140625,793.3699340820312,800.6226806640625,796.1904907226562,811.5018310546875
2023-10-11 15:58:31.159493,787.3259887695312,794.981689453125,800.2197875976562,798.2051391601562,836.08056640625
2023-10-11 15:58:31.161523,787.7289428710938,798.2051391601562,800.6226806640625,796.1904907226562,739.7802124023438
2023-10-11 15:58:31.163303,787.3259887695312,798.2051391601562,799.4139404296875,790.1465454101562,653.1502075195312
2023-10-11 15:58:31.164979,788.937744140625,798.2051391601562,798.6080322265625,792.967041015625,728.09521484375
2023-10-11 15:58:31.167030,798.6080322265625,798.6080322265625,797.8021850585938,797.8021850585938,843.3333129882812
2023-10-11 15:58:31.168792,804.6520385742188,794.981689453125,794.1758422851562,798.6080322265625,834.06591796875
2023-10-11 15:58:31.170483,798.6080322265625,792.1611938476562,791.7582397460938,798.2051391601562,804.6520385742188
2023-10-11 15:58:31.172204,787.3259887695312,790.952392578125,790.5494384765625,800.6226806640625,870.7326049804688
2023-10-11 15:58:31.176820,787.3259887695312,787.7289428710938,788.937744140625,802.2344360351562,739.7802124023438
2023-10-11 15:58:31.178676,793.3699340820312,788.937744140625,790.5494384765625,804.2490844726562,740.5860595703125
2023-10-11 15:58:31.202015,795.3846435546875,790.1465454101562,792.5640869140625,808.6813354492188,926.7399291992188
2023-10-11 15:58:31.203977,789.3406372070312,790.5494384765625,790.952392578125,802.2344360351562,837.2893676757812
2023-10-11 15:58:31.205617,785.7142944335938,790.5494384765625,790.5494384765625,801.025634765625,627.3626098632812
2023-10-11 15:58:31.208763,789.7435913085938,791.7582397460938,793.3699340820312,809.4871826171875,632.6007080078125
2023-10-11 15:58:31.210663,790.1465454101562,792.5640869140625,797.3992919921875,814.7252807617188,803.040283203125
2023-10-11 15:58:31.213322,786.923095703125,789.3406372070312,795.3846435546875,806.2637329101562,927.1428833007812
2023-10-11 15:58:31.214772,784.1025390625,788.1318969726562,792.967041015625,795.3846435546875,870.3296508789062
2023-10-11 15:58:31.225429,776.4468994140625,789.7435913085938,795.7875366210938,788.1318969726562,689.010986328125
2023-10-11 15:58:31.228296,780.0732421875,789.7435913085938,796.5933837890625,790.5494384765625,792.5640869140625
2023-10-11 15:58:31.230998,791.7582397460938,789.7435913085938,792.1611938476562,799.8168334960938,892.893798828125
2023-10-11 15:58:31.233395,798.2051391601562,791.7582397460938,793.3699340820312,801.8314819335938,803.040283203125
2023-10-11 15:58:31.235554,799.010986328125,791.3552856445312,794.981689453125,807.4725341796875,785.7142944335938
2023-10-11 15:58:31.237823,787.3259887695312,789.3406372070312,792.5640869140625,803.8461303710938,718.8278198242188
2023-10-11 15:58:31.239322,787.7289428710938,789.7435913085938,791.3552856445312,790.5494384765625,622.5274658203125
2023-10-11 15:58:31.240770,796.1904907226562,789.7435913085938,792.967041015625,789.3406372070312,732.12451171875
2023-10-11 15:58:31.242073,797.8021850585938,788.5347900390625,796.1904907226562,806.6666870117188,931.5750732421875
2023-10-11 15:58:31.243845,789.3406372070312,789.3406372070312,795.3846435546875,811.90478515625,923.91943359375
2023-10-11 15:58:31.245781,786.5201416015625,790.5494384765625,796.5933837890625,804.2490844726562,792.1611938476562
2023-10-11 15:58:31.247762,788.1318969726562,788.937744140625,794.5787353515625,802.2344360351562,668.8644409179688
2023-10-11 15:58:31.249482,793.3699340820312,789.7435913085938,792.5640869140625,809.89013671875,733.7362670898438
2023-10-11 15:58:31.251314,803.8461303710938,790.952392578125,796.5933837890625,825.2014770507812,1009.7435913085938
2023-10-11 15:58:31.253322,799.4139404296875,789.3406372070312,800.2197875976562,818.3516235351562,909.8168334960938
2023-10-11 15:58:31.255390,785.3113403320312,785.3113403320312,800.2197875976562,805.4578857421875,696.2637329101562
2023-10-11 15:58:31.257084,784.1025390625,784.5054931640625,799.010986328125,807.87548828125,656.3735961914062
2023-10-11 15:58:31.268263,792.5640869140625,788.1318969726562,801.4285888671875,815.1282348632812,676.5201416015625
2023-10-11 15:58:31.270367,796.1904907226562,787.7289428710938,801.8314819335938,812.7106323242188,770.0
2023-10-11 15:58:31.272551,794.1758422851562,786.923095703125,801.8314819335938,807.4725341796875,823.99267578125
2023-10-11 15:58:31.274506,788.937744140625,788.937744140625,805.054931640625,811.098876953125,794.981689453125
2023-10-11 15:58:31.276257,790.1465454101562,791.7582397460938,806.2637329101562,817.5457763671875,686.1904907226562
2023-10-11 15:58:31.278724,795.7875366210938,792.967041015625,803.8461303710938,818.3516235351562,704.3223266601562
2023-10-11 15:58:31.280798,803.4432373046875,793.3699340820312,800.2197875976562,818.7545776367188,879.1941528320312
2023-10-11 15:58:31.283045,803.8461303710938,792.1611938476562,799.4139404296875,818.3516235351562,1110.879150390625
2023-10-11 15:58:31.285014,795.7875366210938,793.7728881835938,798.6080322265625,809.89013671875,1005.3113403320312
2023-10-11 15:58:31.295975,795.7875366210938,796.5933837890625,795.3846435546875,802.2344360351562,627.7655639648438
2023-10-11 15:58:31.297799,798.6080322265625,797.8021850585938,794.5787353515625,801.8314819335938,630.5860595703125
2023-10-11 15:58:31.298973,806.2637329101562,799.4139404296875,795.7875366210938,804.2490844726562,855.018310546875
2023-10-11 15:58:31.334583,807.87548828125,799.4139404296875,796.1904907226562,808.2783813476562,859.047607421875
2023-10-11 15:58:31.336220,803.4432373046875,794.981689453125,797.8021850585938,806.2637329101562,773.2234497070312
2023-10-11 15:58:31.337782,796.996337890625,808.6813354492188,800.2197875976562,804.6520385742188,695.4578857421875
2023-10-11 15:58:31.339169,790.952392578125,835.6776733398438,797.8021850585938,798.6080322265625,667.6557006835938
2023-10-11 15:58:31.340644,794.5787353515625,841.7216186523438,796.1904907226562,788.937744140625,719.2307739257812
2023-10-11 15:58:31.342141,798.6080322265625,837.2893676757812,797.8021850585938,797.3992919921875,857.8388061523438
2023-10-11 15:58:31.343855,789.3406372070312,835.2747192382812,798.2051391601562,801.8314819335938,946.886474609375
2023-10-11 15:58:31.345499,782.087890625,836.08056640625,798.2051391601562,800.6226806640625,938.8278198242188
2023-10-11 15:58:31.347437,788.1318969726562,836.08056640625,799.010986328125,798.6080322265625,782.4908447265625
2023-10-11 15:58:31.349158,797.3992919921875,834.4688720703125,801.4285888671875,805.054931640625,704.3223266601562
2023-10-11 15:58:31.350709,801.8314819335938,832.05126953125,799.8168334960938,814.7252807617188,838.901123046875
2023-10-11 15:58:31.352645,795.7875366210938,826.4102783203125,791.7582397460938,810.2930297851562,872.7472534179688
2023-10-11 15:58:31.376821,793.3699340820312,817.94873046875,787.7289428710938,805.4578857421875,699.084228515625
2023-10-11 15:58:31.378062,803.040283203125,820.3662719726562,789.7435913085938,803.040283203125,636.2271118164062
2023-10-11 15:58:31.379097,793.7728881835938,825.2014770507812,790.5494384765625,799.010986328125,754.6886596679688
2023-10-11 15:58:31.383172,790.952392578125,820.7692260742188,788.937744140625,791.7582397460938,838.901123046875
2023-10-11 15:58:31.385395,804.6520385742188,817.5457763671875,788.5347900390625,796.1904907226562,820.3662719726562
2023-10-11 15:58:31.386652,814.3223266601562,819.5604248046875,785.3113403320312,809.084228515625,808.2783813476562
2023-10-11 15:58:31.388485,813.91943359375,821.97802734375,786.5201416015625,811.5018310546875,926.3369750976562
2023-10-11 15:58:31.390286,817.5457763671875,819.96337890625,791.7582397460938,811.90478515625,902.1611938476562
2023-10-11 15:58:31.392205,816.3369750976562,813.113525390625,788.1318969726562,810.6959838867188,796.996337890625
2023-10-11 15:58:31.394603,804.2490844726562,807.87548828125,791.3552856445312,807.87548828125,802.6373901367188
2023-10-11 15:58:31.396251,798.2051391601562,808.6813354492188,795.3846435546875,806.2637329101562,743.003662109375
2023-10-11 15:58:31.407496,806.2637329101562,809.4871826171875,794.1758422851562,809.084228515625,686.996337890625
2023-10-11 15:58:31.434632,807.4725341796875,807.87548828125,796.996337890625,812.3076782226562,699.4871826171875
2023-10-11 15:58:31.436347,804.6520385742188,804.2490844726562,796.1904907226562,817.1428833007812,849.3773193359375
2023-10-11 15:58:31.438009,808.6813354492188,798.6080322265625,790.952392578125,816.7399291992188,923.113525390625
2023-10-11 15:58:31.439562,802.2344360351562,797.8021850585938,789.3406372070312,805.4578857421875,754.6886596679688
2023-10-11 15:58:31.441178,802.6373901367188,797.3992919921875,790.952392578125,806.6666870117188,637.8388061523438
2023-10-11 15:58:31.442929,813.5164794921875,794.1758422851562,791.7582397460938,812.7106323242188,851.7948608398438
2023-10-11 15:58:31.444446,816.7399291992188,794.1758422851562,794.1758422851562,807.87548828125,1135.86083984375
2023-10-11 15:58:31.446741,808.6813354492188,792.967041015625,794.1758422851562,810.2930297851562,931.5750732421875
2023-10-11 15:58:31.448551,800.6226806640625,791.7582397460938,792.5640869140625,809.084228515625,697.069580078125
2023-10-11 15:58:31.450086,797.3992919921875,794.5787353515625,792.967041015625,802.6373901367188,697.4725341796875
2023-10-11 15:58:31.451658,802.6373901367188,796.996337890625,792.5640869140625,793.3699340820312,777.2527465820312
2023-10-11 15:58:31.454306,812.3076782226562,797.3992919921875,792.5640869140625,799.010986328125,856.6300659179688
2023-10-11 15:58:31.503542,811.90478515625,793.7728881835938,794.1758422851562,808.6813354492188,835.6776733398438
2023-10-11 15:58:31.505668,797.8021850585938,790.952392578125,792.5640869140625,801.025634765625,803.4432373046875
2023-10-11 15:58:31.507410,790.1465454101562,787.7289428710938,790.5494384765625,798.6080322265625,752.2710571289062
2023-10-11 15:58:31.509143,796.5933837890625,784.1025390625,790.952392578125,799.4139404296875,702.3076782226562
2023-10-11 15:58:31.512236,807.069580078125,782.893798828125,788.937744140625,800.2197875976562,800.2197875976562
2023-10-11 15:58:31.514533,815.1282348632812,783.6996459960938,787.7289428710938,792.967041015625,1049.6336669921875
2023-10-11 15:58:31.515727,814.7252807617188,786.5201416015625,790.952392578125,785.7142944335938,999.2673950195312
2023-10-11 15:58:31.517096,815.5311279296875,788.1318969726562,792.5640869140625,784.908447265625,662.4176025390625
2023-10-11 15:58:31.518197,827.2161254882812,791.7582397460938,793.3699340820312,802.6373901367188,692.2344360351562
2023-10-11 15:58:31.519530,822.7838745117188,792.5640869140625,794.981689453125,817.5457763671875,974.6886596679688
2023-10-11 15:58:31.520807,809.4871826171875,790.1465454101562,796.5933837890625,825.2014770507812,970.6593627929688
2023-10-11 15:58:31.522302,796.1904907226562,790.952392578125,793.3699340820312,827.6190185546875,740.1831665039062
2023-10-11 15:58:31.534407,787.7289428710938,793.7728881835938,792.1611938476562,818.3516235351562,605.6043701171875
2023-10-11 15:58:31.544982,790.5494384765625,793.3699340820312,793.7728881835938,815.93408203125,660.0
2023-10-11 15:58:31.546608,790.5494384765625,792.967041015625,788.937744140625,810.2930297851562,790.1465454101562
2023-10-11 15:58:31.548733,810.2930297851562,796.1904907226562,780.4761962890625,817.5457763671875,796.996337890625
2023-10-11 15:58:31.550681,825.2014770507812,799.010986328125,782.893798828125,831.2454223632812,768.7911987304688
2023-10-11 15:58:31.552287,797.8021850585938,787.3259887695312,799.8168334960938,811.098876953125,730.5128173828125
2023-10-11 15:58:31.554805,777.2527465820312,781.2820434570312,801.8314819335938,791.3552856445312,741.3919677734375
2023-10-11 15:58:31.556939,779.6703491210938,779.6703491210938,796.5933837890625,783.6996459960938,830.03662109375
2023-10-11 15:58:31.558899,774.8351440429688,769.5970458984375,800.2197875976562,769.1941528320312,892.4908447265625
2023-10-11 15:58:31.560931,757.106201171875,760.7326049804688,804.2490844726562,764.3589477539062,974.6886596679688
2023-10-11 15:58:31.563810,739.3773193359375,755.091552734375,809.084228515625,755.8974609375,722.05126953125
2023-10-11 15:58:31.565306,737.3626098632812,751.8681030273438,812.3076782226562,755.8974609375,608.4249267578125
2023-10-11 15:58:31.573271,732.5274658203125,745.4212646484375,815.1282348632812,749.8534545898438,804.6520385742188
2023-10-11 15:58:31.574641,737.7655639648438,741.7948608398438,814.3223266601562,755.091552734375,872.3442993164062
2023-10-11 15:58:31.576735,730.10986328125,743.003662109375,815.5311279296875,759.5238037109375,742.1978149414062
2023-10-11 15:58:31.578134,713.99267578125,738.5714111328125,815.93408203125,744.6153564453125,629.7802124023438
2023-10-11 15:58:31.579658,717.2161254882812,733.3333129882812,815.93408203125,747.8388061523438,687.8021850585938
2023-10-11 15:58:31.582546,724.06591796875,736.5567626953125,814.7252807617188,760.7326049804688,848.5714111328125
2023-10-11 15:58:31.583785,731.7216186523438,740.5860595703125,813.113525390625,767.5823974609375,921.098876953125
2023-10-11 15:58:31.584997,729.7069702148438,741.3919677734375,813.91943359375,759.120849609375,875.1648559570312
2023-10-11 15:58:31.586290,730.5128173828125,745.4212646484375,813.5164794921875,770.0,894.1025390625
2023-10-11 15:58:31.588522,741.3919677734375,745.4212646484375,813.113525390625,772.4176025390625,833.6630249023438
2023-10-11 15:58:31.589785,752.6740112304688,746.2271118164062,815.5311279296875,768.7911987304688,745.018310546875
2023-10-11 15:58:31.591001,758.7179565429688,750.2564086914062,813.91943359375,778.05859375,869.9267578125
2023-10-11 15:58:31.602987,759.120849609375,752.6740112304688,816.3369750976562,779.6703491210938,921.098876953125
2023-10-11 15:58:31.605217,753.8828125,752.6740112304688,818.3516235351562,772.8204956054688,718.4249267578125
2023-10-11 15:58:31.609088,754.2857055664062,752.6740112304688,817.5457763671875,772.4176025390625,634.6153564453125
2023-10-11 15:58:31.621042,765.1648559570312,757.106201171875,817.1428833007812,780.0732421875,770.8058471679688
2023-10-11 15:58:31.622707,771.2088012695312,759.5238037109375,817.94873046875,783.6996459960938,873.5531005859375
2023-10-11 15:58:31.625085,772.0146484375,761.1355590820312,821.5750732421875,794.1758422851562,866.7033081054688
2023-10-11 15:58:31.626905,768.3883056640625,761.1355590820312,820.3662719726562,792.1611938476562,761.1355590820312
2023-10-11 15:58:31.628604,768.3883056640625,759.120849609375,817.1428833007812,786.1171875,750.2564086914062
2023-10-11 15:58:31.630166,776.4468994140625,765.1648559570312,815.93408203125,803.4432373046875,975.091552734375
2023-10-11 15:58:31.631701,785.7142944335938,770.8058471679688,811.90478515625,807.87548828125,948.901123046875
2023-10-11 15:58:31.633084,783.6996459960938,768.3883056640625,810.6959838867188,790.5494384765625,877.1795043945312
2023-10-11 15:58:31.634455,778.4615478515625,771.2088012695312,809.4871826171875,784.1025390625,783.2966918945312
2023-10-11 15:58:31.655796,779.6703491210938,776.8497924804688,804.2490844726562,782.893798828125,666.8497924804688
2023-10-11 15:58:31.657412,786.923095703125,774.8351440429688,801.4285888671875,786.923095703125,686.1904907226562
2023-10-11 15:58:31.658886,793.3699340820312,776.4468994140625,804.2490844726562,796.1904907226562,810.2930297851562
2023-10-11 15:58:31.660754,791.7582397460938,778.8644409179688,802.2344360351562,788.5347900390625,866.3003540039062
2023-10-11 15:58:31.662268,790.1465454101562,780.879150390625,800.6226806640625,782.4908447265625,725.2747192382812
2023-10-11 15:58:31.664006,783.6996459960938,783.6996459960938,801.8314819335938,784.5054931640625,686.996337890625
2023-10-11 15:58:31.665349,787.7289428710938,782.893798828125,805.054931640625,790.952392578125,765.970703125
2023-10-11 15:58:31.666664,799.8168334960938,781.2820434570312,802.6373901367188,798.2051391601562,981.94140625
2023-10-11 15:58:31.668185,798.2051391601562,784.5054931640625,800.2197875976562,807.4725341796875,1044.3956298828125
2023-10-11 15:58:31.669979,792.5640869140625,788.1318969726562,797.3992919921875,802.6373901367188,747.032958984375
2023-10-11 15:58:31.671474,795.7875366210938,790.1465454101562,796.996337890625,795.7875366210938,618.4981689453125
2023-10-11 15:58:31.672730,802.6373901367188,792.5640869140625,800.6226806640625,803.4432373046875,707.94873046875
2023-10-11 15:58:31.717846,809.89013671875,788.937744140625,798.2051391601562,811.5018310546875,835.6776733398438
2023-10-11 15:58:31.719430,809.89013671875,785.3113403320312,796.5933837890625,816.7399291992188,889.6703491210938
2023-10-11 15:58:31.720820,797.3992919921875,784.5054931640625,797.8021850585938,819.5604248046875,788.937744140625
2023-10-11 15:58:31.722196,785.7142944335938,786.5201416015625,798.2051391601562,814.3223266601562,817.5457763671875
2023-10-11 15:58:31.723433,790.5494384765625,786.923095703125,799.4139404296875,809.084228515625,767.9853515625
2023-10-11 15:58:31.731688,800.6226806640625,787.3259887695312,798.2051391601562,799.8168334960938,801.025634765625
2023-10-11 15:58:31.733374,794.1758422851562,790.5494384765625,798.6080322265625,799.8168334960938,1008.1318969726562
2023-10-11 15:58:31.734863,787.3259887695312,794.1758422851562,797.3992919921875,815.93408203125,1070.5860595703125
2023-10-11 15:58:31.736448,781.2820434570312,790.5494384765625,792.5640869140625,806.2637329101562,691.8314819335938
2023-10-11 15:58:31.737793,786.1171875,788.1318969726562,794.1758422851562,789.3406372070312,449.26739501953125
2023-10-11 15:58:31.739060,792.1611938476562,790.952392578125,792.5640869140625,794.1758422851562,603.99267578125
2023-10-11 15:58:31.740601,792.1611938476562,788.5347900390625,789.7435913085938,804.6520385742188,682.967041015625
2023-10-11 15:58:31.750780,790.952392578125,789.7435913085938,794.5787353515625,809.084228515625,583.4432373046875
2023-10-11 15:58:31.752457,782.087890625,788.937744140625,794.1758422851562,803.4432373046875,478.27838134765625
2023-10-11 15:58:31.754018,785.3113403320312,784.908447265625,794.5787353515625,795.3846435546875,531.8681030273438
2023-10-11 15:58:31.755725,794.5787353515625,789.3406372070312,799.8168334960938,798.2051391601562,708.7545776367188
2023-10-11 15:58:31.757335,801.8314819335938,787.7289428710938,799.4139404296875,805.8607788085938,774.029296875
2023-10-11 15:58:31.759450,792.5640869140625,782.087890625,793.7728881835938,788.1318969726562,733.3333129882812
2023-10-11 15:58:31.761834,784.5054931640625,784.1025390625,791.7582397460938,805.8607788085938,956.959716796875
2023-10-11 15:58:31.764009,797.8021850585938,790.952392578125,798.2051391601562,822.7838745117188,976.7033081054688
2023-10-11 15:58:31.766088,801.4285888671875,794.1758422851562,795.7875366210938,805.8607788085938,804.2490844726562
2023-10-11 15:58:31.768334,803.040283203125,792.5640869140625,795.3846435546875,804.2490844726562,921.5018310546875
2023-10-11 15:58:31.769854,804.2490844726562,793.3699340820312,802.2344360351562,820.7692260742188,1016.5933837890625
2023-10-11 15:58:31.770913,799.8168334960938,796.1904907226562,803.4432373046875,815.1282348632812,815.93408203125
2023-10-11 15:58:31.817379,790.952392578125,797.8021850585938,801.4285888671875,803.8461303710938,665.2380981445312
2023-10-11 15:58:31.819373,796.5933837890625,797.8021850585938,800.6226806640625,813.113525390625,785.7142944335938
2023-10-11 15:58:31.821051,806.2637329101562,798.2051391601562,799.8168334960938,811.90478515625,911.8314819335938
2023-10-11 15:58:31.823031,801.8314819335938,799.4139404296875,799.8168334960938,797.3992919921875,857.4359130859375
2023-10-11 15:58:31.824923,792.967041015625,798.2051391601562,799.8168334960938,790.1465454101562,713.99267578125
2023-10-11 15:58:31.826496,793.3699340820312,799.010986328125,803.4432373046875,800.6226806640625,787.3259887695312
2023-10-11 15:58:31.827660,795.7875366210938,796.996337890625,801.8314819335938,804.6520385742188,1008.1318969726562
2023-10-11 15:58:31.839174,799.4139404296875,796.996337890625,794.981689453125,807.069580078125,1031.90478515625
2023-10-11 15:58:31.840684,796.5933837890625,797.3992919921875,794.5787353515625,813.113525390625,881.2088012695312
2023-10-11 15:58:31.842413,787.3259887695312,793.7728881835938,796.5933837890625,810.6959838867188,789.7435913085938
2023-10-11 15:58:31.844342,785.3113403320312,791.7582397460938,794.981689453125,809.084228515625,823.5897216796875
2023-10-11 15:58:31.846418,794.981689453125,792.5640869140625,794.1758422851562,801.4285888671875,766.3735961914062
2023-10-11 15:58:31.861452,801.8314819335938,794.1758422851562,797.8021850585938,804.6520385742188,815.5311279296875
2023-10-11 15:58:31.862728,794.1758422851562,791.7582397460938,799.010986328125,815.5311279296875,867.106201171875
2023-10-11 15:58:31.865253,783.6996459960938,788.5347900390625,798.6080322265625,807.4725341796875,800.2197875976562
2023-10-11 15:58:31.866743,783.6996459960938,791.3552856445312,805.054931640625,805.054931640625,691.025634765625
2023-10-11 15:58:31.868129,794.5787353515625,792.967041015625,805.8607788085938,816.3369750976562,686.996337890625
2023-10-11 15:58:31.869660,800.6226806640625,798.6080322265625,801.8314819335938,815.5311279296875,969.4505615234375
2023-10-11 15:58:31.871764,798.2051391601562,798.6080322265625,798.6080322265625,801.025634765625,1030.6959228515625
2023-10-11 15:58:31.873036,789.3406372070312,792.967041015625,794.981689453125,793.7728881835938,746.6300659179688
2023-10-11 15:58:31.876582,784.1025390625,790.952392578125,791.7582397460938,792.967041015625,651.1355590820312
2023-10-11 15:58:31.878122,794.1758422851562,793.3699340820312,792.1611938476562,788.1318969726562,904.5787353515625
2023-10-11 15:58:31.882815,800.6226806640625,798.2051391601562,794.1758422851562,801.4285888671875,981.94140625
2023-10-11 15:58:31.886275,797.3992919921875,799.8168334960938,791.3552856445312,800.6226806640625,840.915771484375
2023-10-11 15:58:31.897664,790.952392578125,798.6080322265625,793.3699340820312,793.7728881835938,763.1502075195312
2023-10-11 15:58:31.899070,786.5201416015625,798.2051391601562,796.996337890625,802.6373901367188,716.8131713867188
2023-10-11 15:58:31.900907,791.3552856445312,796.5933837890625,797.8021850585938,795.7875366210938,687.3992919921875
2023-10-11 15:58:31.902357,800.6226806640625,794.5787353515625,799.8168334960938,790.5494384765625,738.974365234375
2023-10-11 15:58:31.903744,801.025634765625,797.8021850585938,801.8314819335938,800.2197875976562,834.4688720703125
2023-10-11 15:58:31.905171,796.996337890625,797.3992919921875,803.8461303710938,803.8461303710938,866.7033081054688
2023-10-11 15:58:31.906534,788.5347900390625,790.952392578125,803.8461303710938,805.054931640625,828.02197265625
2023-10-11 15:58:31.908087,788.937744140625,792.1611938476562,803.8461303710938,807.87548828125,705.93408203125
2023-10-11 15:58:31.909411,795.7875366210938,794.1758422851562,801.4285888671875,810.6959838867188,773.2234497070312
2023-10-11 15:58:31.918901,788.5347900390625,794.981689453125,799.8168334960938,800.2197875976562,1054.4688720703125
2023-10-11 15:58:31.920903,779.6703491210938,796.996337890625,799.010986328125,789.7435913085938,857.032958984375
2023-10-11 15:58:31.922904,783.2966918945312,799.010986328125,800.6226806640625,792.5640869140625,617.2893676757812
2023-10-11 15:58:31.951269,790.952392578125,801.4285888671875,802.6373901367188,793.3699340820312,806.2637329101562
2023-10-11 15:58:31.953336,796.5933837890625,798.6080322265625,803.4432373046875,794.1758422851562,904.981689453125
2023-10-11 15:58:31.954552,806.2637329101562,798.2051391601562,803.4432373046875,790.5494384765625,806.2637329101562
2023-10-11 15:58:31.956477,809.4871826171875,800.6226806640625,804.6520385742188,796.1904907226562,752.6740112304688
2023-10-11 15:58:31.957567,796.5933837890625,799.8168334960938,805.054931640625,805.054931640625,738.5714111328125
2023-10-11 15:58:31.958953,798.6080322265625,800.2197875976562,800.6226806640625,803.040283203125,799.4139404296875
2023-10-11 15:58:31.961823,806.2637329101562,801.8314819335938,802.6373901367188,807.069580078125,838.901123046875
2023-10-11 15:58:31.963067,800.6226806640625,798.6080322265625,805.8607788085938,814.7252807617188,784.1025390625
2023-10-11 15:58:31.964673,795.7875366210938,798.2051391601562,801.4285888671875,806.2637329101562,880.8058471679688
2023-10-11 15:58:31.966182,790.5494384765625,799.8168334960938,802.6373901367188,794.1758422851562,863.076904296875
2023-10-11 15:58:31.967757,790.5494384765625,799.010986328125,808.2783813476562,795.3846435546875,709.5604248046875
2023-10-11 15:58:31.969440,795.3846435546875,797.8021850585938,803.8461303710938,798.6080322265625,743.003662109375
2023-10-11 15:58:31.992914,807.4725341796875,799.8168334960938,801.025634765625,802.6373901367188,815.93408203125
2023-10-11 15:58:31.994228,802.2344360351562,796.1904907226562,805.4578857421875,801.8314819335938,772.8204956054688
2023-10-11 15:58:31.995405,793.7728881835938,794.1758422851562,806.6666870117188,803.040283203125,732.12451171875
2023-10-11 15:58:31.996867,795.3846435546875,794.5787353515625,802.6373901367188,815.93408203125,806.6666870117188
2023-10-11 15:58:31.998096,794.1758422851562,792.5640869140625,798.2051391601562,808.2783813476562,841.7216186523438
2023-10-11 15:58:31.999445,799.8168334960938,796.5933837890625,800.2197875976562,807.87548828125,859.8534545898438
2023-10-11 15:58:32.000833,799.8168334960938,799.010986328125,801.8314819335938,811.5018310546875,801.025634765625
2023-10-11 15:58:32.001876,793.7728881835938,797.3992919921875,800.2197875976562,801.4285888671875,768.3883056640625
2023-10-11 15:58:32.003165,790.952392578125,794.981689453125,802.6373901367188,811.5018310546875,956.5567626953125
2023-10-11 15:58:32.004632,788.5347900390625,798.6080322265625,799.4139404296875,811.098876953125,834.8717651367188
2023-10-11 15:58:32.006164,796.1904907226562,804.6520385742188,796.996337890625,805.4578857421875,711.5750732421875
2023-10-11 15:58:32.018264,798.2051391601562,802.2344360351562,798.6080322265625,799.4139404296875,742.1978149414062
2023-10-11 15:58:32.029203,788.5347900390625,799.8168334960938,798.2051391601562,797.8021850585938,690.2197875976562
2023-10-11 15:58:32.033046,780.879150390625,801.025634765625,801.8314819335938,800.6226806640625,662.0146484375
2023-10-11 15:58:32.035859,791.3552856445312,801.025634765625,803.040283203125,802.6373901367188,713.99267578125
2023-10-11 15:58:32.039228,798.6080322265625,799.8168334960938,800.2197875976562,802.2344360351562,800.6226806640625
2023-10-11 15:58:32.042354,795.3846435546875,796.5933837890625,801.8314819335938,794.981689453125,798.2051391601562
2023-10-11 15:58:32.043889,803.8461303710938,793.7728881835938,804.2490844726562,812.7106323242188,770.0
2023-10-11 15:58:32.045898,798.6080322265625,799.010986328125,801.8314819335938,813.113525390625,835.2747192382812
2023-10-11 15:58:32.047669,788.5347900390625,803.4432373046875,799.8168334960938,798.2051391601562,1035.5311279296875
2023-10-11 15:58:32.048921,796.5933837890625,804.2490844726562,801.025634765625,805.4578857421875,1003.2966918945312
2023-10-11 15:58:32.050703,794.981689453125,809.4871826171875,801.4285888671875,797.3992919921875,749.8534545898438
2023-10-11 15:58:32.052710,795.7875366210938,814.3223266601562,799.8168334960938,788.937744140625,740.989013671875
2023-10-11 15:58:32.053893,801.8314819335938,814.7252807617188,796.996337890625,792.5640869140625,842.5274658203125
2023-10-11 15:58:32.087394,811.90478515625,817.1428833007812,791.7582397460938,786.1171875,777.2527465820312
2023-10-11 15:58:32.088848,825.2014770507812,820.7692260742188,790.952392578125,779.2673950195312,738.5714111328125
2023-10-11 15:58:32.089923,826.00732421875,819.96337890625,792.967041015625,773.2234497070312,760.3296508789062
2023-10-11 15:58:32.091421,821.97802734375,824.3956298828125,792.5640869140625,771.2088012695312,733.7362670898438
2023-10-11 15:58:32.092564,815.93408203125,829.2307739257812,790.5494384765625,781.2820434570312,755.8974609375
2023-10-11 15:58:32.093608,812.3076782226562,824.3956298828125,788.1318969726562,791.3552856445312,828.02197265625
2023-10-11 15:58:32.094608,804.2490844726562,819.96337890625,788.1318969726562,798.2051391601562,880.4029541015625
2023-10-11 15:58:32.096122,799.4139404296875,818.7545776367188,793.3699340820312,813.91943359375,1010.952392578125
2023-10-11 15:58:32.097829,791.7582397460938,815.93408203125,796.996337890625,818.3516235351562,906.1904907226562
2023-10-11 15:58:32.099323,793.7728881835938,815.5311279296875,794.5787353515625,813.91943359375,717.6190185546875
2023-10-11 15:58:32.100464,807.4725341796875,813.91943359375,793.7728881835938,816.3369750976562,767.5823974609375
2023-10-11 15:58:32.101904,809.89013671875,813.91943359375,797.8021850585938,818.7545776367188,845.3479614257812
2023-10-11 15:58:32.130518,800.2197875976562,815.1282348632812,799.8168334960938,820.3662719726562,757.106201171875
2023-10-11 15:58:32.140965,797.8021850585938,815.93408203125,801.025634765625,806.2637329101562,733.7362670898438
2023-10-11 15:58:32.142431,804.2490844726562,815.93408203125,801.4285888671875,801.4285888671875,789.7435913085938
2023-10-11 15:58:32.143862,804.6520385742188,813.5164794921875,797.3992919921875,804.2490844726562,753.4798583984375
2023-10-11 15:58:32.145280,806.2637329101562,808.6813354492188,794.5787353515625,801.8314819335938,735.7509155273438
2023-10-11 15:58:32.146798,806.6666870117188,808.2783813476562,799.8168334960938,796.996337890625,777.6557006835938
2023-10-11 15:58:32.148574,799.010986328125,813.5164794921875,804.6520385742188,809.084228515625,944.4688720703125
2023-10-11 15:58:32.150623,796.1904907226562,812.7106323242188,802.2344360351562,808.6813354492188,971.8681030273438
2023-10-11 15:58:32.151870,796.5933837890625,806.2637329101562,799.4139404296875,804.2490844726562,731.7216186523438
2023-10-11 15:58:32.153377,798.6080322265625,800.6226806640625,800.6226806640625,804.6520385742188,713.99267578125
2023-10-11 15:58:32.154831,806.6666870117188,803.040283203125,802.6373901367188,798.2051391601562,807.4725341796875
2023-10-11 15:58:32.156451,807.069580078125,805.054931640625,801.8314819335938,800.2197875976562,792.1611938476562
2023-10-11 15:58:32.203750,803.4432373046875,799.010986328125,803.4432373046875,807.4725341796875,732.12451171875
2023-10-11 15:58:32.205491,799.4139404296875,798.2051391601562,799.8168334960938,809.084228515625,782.893798828125
2023-10-11 15:58:32.206820,797.3992919921875,799.8168334960938,798.2051391601562,806.6666870117188,875.1648559570312
2023-10-11 15:58:32.208130,799.4139404296875,801.4285888671875,803.4432373046875,807.069580078125,795.7875366210938
2023-10-11 15:58:32.209401,796.1904907226562,802.6373901367188,805.054931640625,798.2051391601562,714.7985229492188
2023-10-11 15:58:32.210677,797.3992919921875,800.2197875976562,800.2197875976562,799.8168334960938,827.2161254882812
2023-10-11 15:58:32.212200,799.010986328125,798.6080322265625,798.6080322265625,806.2637329101562,1012.1611938476562
2023-10-11 15:58:32.213118,794.5787353515625,801.025634765625,799.8168334960938,798.2051391601562,839.3040161132812
2023-10-11 15:58:32.214160,794.1758422851562,799.8168334960938,801.4285888671875,796.1904907226562,705.5311279296875
2023-10-11 15:58:32.215112,796.1904907226562,797.8021850585938,802.6373901367188,795.3846435546875,775.6410522460938
2023-10-11 15:58:32.216459,790.5494384765625,799.4139404296875,800.6226806640625,797.8021850585938,790.1465454101562
2023-10-11 15:58:32.218403,794.1758422851562,802.6373901367188,802.6373901367188,797.3992919921875,759.120849609375
2023-10-11 15:58:32.261702,803.8461303710938,805.4578857421875,799.8168334960938,797.8021850585938,765.1648559570312
2023-10-11 15:58:32.263077,801.4285888671875,801.4285888671875,797.8021850585938,796.5933837890625,819.96337890625
2023-10-11 15:58:32.263974,799.010986328125,801.8314819335938,801.4285888671875,796.5933837890625,835.2747192382812
2023-10-11 15:58:32.272832,794.5787353515625,805.054931640625,802.6373901367188,799.8168334960938,776.4468994140625
2023-10-11 15:58:32.274188,796.5933837890625,801.025634765625,801.4285888671875,799.010986328125,712.7838745117188
2023-10-11 15:58:32.275327,805.4578857421875,801.025634765625,801.4285888671875,801.4285888671875,925.1282348632812
2023-10-11 15:58:32.276659,802.6373901367188,801.4285888671875,799.4139404296875,796.996337890625,1060.5128173828125
2023-10-11 15:58:32.278250,798.6080322265625,797.3992919921875,795.7875366210938,785.7142944335938,793.7728881835938
2023-10-11 15:58:32.279621,796.996337890625,797.3992919921875,794.981689453125,781.2820434570312,716.4102783203125
2023-10-11 15:58:32.281268,796.5933837890625,799.4139404296875,795.3846435546875,799.8168334960938,851.3919677734375
2023-10-11 15:58:32.282793,795.7875366210938,796.5933837890625,796.996337890625,811.5018310546875,823.5897216796875
2023-10-11 15:58:32.283871,806.6666870117188,797.8021850585938,801.025634765625,808.2783813476562,759.120849609375
2023-10-11 15:58:32.285274,819.5604248046875,805.4578857421875,799.8168334960938,817.94873046875,758.3150024414062
2023-10-11 15:58:32.286644,805.8607788085938,809.89013671875,794.5787353515625,807.069580078125,730.915771484375
2023-10-11 15:58:32.287887,790.5494384765625,810.2930297851562,789.7435913085938,787.3259887695312,690.2197875976562
2023-10-11 15:58:32.289563,800.6226806640625,812.3076782226562,789.7435913085938,792.1611938476562,674.5054931640625
2023-10-11 15:58:32.291442,807.87548828125,815.1282348632812,790.1465454101562,798.6080322265625,757.5091552734375
2023-10-11 15:58:32.293886,817.94873046875,819.1575317382812,793.3699340820312,801.4285888671875,860.2564086914062
2023-10-11 15:58:32.295094,816.7399291992188,822.7838745117188,792.1611938476562,800.2197875976562,809.4871826171875
2023-10-11 15:58:32.296004,815.1282348632812,821.97802734375,788.5347900390625,797.8021850585938,736.959716796875
2023-10-11 15:58:32.298045,827.2161254882812,823.5897216796875,786.5201416015625,801.025634765625,801.8314819335938
2023-10-11 15:58:32.302702,822.7838745117188,821.1721801757812,786.1171875,799.010986328125,1004.1025390625
2023-10-11 15:58:32.304460,822.7838745117188,823.5897216796875,787.3259887695312,804.2490844726562,847.3626098632812
2023-10-11 15:58:32.305789,822.3809814453125,825.2014770507812,790.5494384765625,809.084228515625,703.91943359375
2023-10-11 15:58:32.317543,818.7545776367188,821.5750732421875,792.5640869140625,807.069580078125,764.7619018554688
2023-10-11 15:58:32.318412,817.94873046875,820.7692260742188,793.3699340820312,810.6959838867188,767.9853515625
2023-10-11 15:58:32.319244,813.113525390625,820.3662719726562,792.5640869140625,807.069580078125,734.945068359375
2023-10-11 15:58:32.320000,814.3223266601562,815.93408203125,786.923095703125,807.069580078125,701.098876953125
2023-10-11 15:58:32.320866,813.91943359375,815.5311279296875,785.7142944335938,810.6959838867188,771.6116943359375
2023-10-11 15:58:32.328466,811.098876953125,815.5311279296875,790.5494384765625,802.6373901367188,843.3333129882812
2023-10-11 15:58:32.330210,807.069580078125,813.113525390625,792.1611938476562,803.8461303710938,859.047607421875
2023-10-11 15:58:32.331512,803.040283203125,811.098876953125,794.5787353515625,804.6520385742188,845.3479614257812
2023-10-11 15:58:32.333192,805.4578857421875,811.90478515625,798.2051391601562,806.6666870117188,948.901123046875
2023-10-11 15:58:32.334253,805.054931640625,812.3076782226562,797.8021850585938,809.4871826171875,963.4066162109375
2023-10-11 15:58:32.335275,797.8021850585938,808.6813354492188,800.2197875976562,801.4285888671875,751.062255859375
2023-10-11 15:58:32.337627,800.6226806640625,807.069580078125,800.6226806640625,805.8607788085938,763.1502075195312
2023-10-11 15:58:32.352282,807.4725341796875,807.069580078125,797.3992919921875,813.113525390625,890.879150390625
2023-10-11 15:58:32.353261,803.8461303710938,806.2637329101562,797.3992919921875,805.4578857421875,772.4176025390625
2023-10-11 15:58:32.354358,802.2344360351562,806.6666870117188,800.6226806640625,801.025634765625,689.010986328125
2023-10-11 15:58:32.355401,797.3992919921875,803.4432373046875,803.4432373046875,801.025634765625,726.886474609375
2023-10-11 15:58:32.356534,792.5640869140625,803.8461303710938,806.6666870117188,803.040283203125,766.3735961914062
2023-10-11 15:58:32.357718,798.6080322265625,803.4432373046875,805.054931640625,807.87548828125,842.930419921875
2023-10-11 15:58:32.358882,801.4285888671875,802.6373901367188,801.025634765625,807.069580078125,855.4212646484375
2023-10-11 15:58:32.359947,799.010986328125,803.4432373046875,799.8168334960938,810.2930297851562,835.2747192382812
2023-10-11 15:58:32.361777,797.3992919921875,803.040283203125,800.6226806640625,817.94873046875,965.018310546875
2023-10-11 15:58:32.363251,793.7728881835938,803.040283203125,800.2197875976562,812.7106323242188,840.5128173828125
2023-10-11 15:58:32.364536,801.4285888671875,806.2637329101562,800.2197875976562,809.084228515625,747.032958984375
2023-10-11 15:58:32.365787,808.6813354492188,808.6813354492188,800.6226806640625,809.89013671875,822.3809814453125
2023-10-11 15:58:32.418011,804.2490844726562,808.6813354492188,803.8461303710938,816.3369750976562,795.3846435546875
2023-10-11 15:58:32.419333,800.2197875976562,804.2490844726562,807.4725341796875,825.2014770507812,708.7545776367188
2023-10-11 15:58:32.420580,795.7875366210938,802.2344360351562,805.8607788085938,815.5311279296875,712.3809814453125
2023-10-11 15:58:32.422437,800.2197875976562,805.4578857421875,806.2637329101562,807.87548828125,783.2966918945312
2023-10-11 15:58:32.423896,804.2490844726562,799.8168334960938,804.6520385742188,812.3076782226562,748.6447143554688
2023-10-11 15:58:32.426569,804.2490844726562,797.3992919921875,803.4432373046875,811.90478515625,787.7289428710938
2023-10-11 15:58:32.429415,805.054931640625,802.2344360351562,803.4432373046875,813.91943359375,886.0439453125
2023-10-11 15:58:32.442021,802.6373901367188,803.040283203125,801.4285888671875,817.5457763671875,983.9560546875
2023-10-11 15:58:32.444524,799.8168334960938,804.2490844726562,801.4285888671875,813.113525390625,946.4835205078125
2023-10-11 15:58:32.446308,798.2051391601562,801.8314819335938,801.8314819335938,803.4432373046875,732.5274658203125
2023-10-11 15:58:32.447148,792.5640869140625,797.3992919921875,802.2344360351562,795.7875366210938,707.1428833007812
2023-10-11 15:58:32.451150,790.5494384765625,796.5933837890625,803.8461303710938,790.1465454101562,743.8095092773438
2023-10-11 15:58:32.461755,796.1904907226562,796.1904907226562,804.2490844726562,794.981689453125,772.4176025390625
2023-10-11 15:58:32.464743,793.7728881835938,798.2051391601562,799.8168334960938,799.010986328125,780.4761962890625
2023-10-11 15:58:32.467190,789.7435913085938,795.7875366210938,800.6226806640625,794.1758422851562,763.9560546875
2023-10-11 15:58:32.468649,788.1318969726562,793.7728881835938,801.8314819335938,796.1904907226562,814.7252807617188
2023-10-11 15:58:32.471909,789.3406372070312,793.7728881835938,798.6080322265625,795.7875366210938,759.5238037109375
2023-10-11 15:58:32.473460,789.3406372070312,792.967041015625,797.3992919921875,800.6226806640625,777.6557006835938
2023-10-11 15:58:32.475368,794.981689453125,792.967041015625,795.3846435546875,802.6373901367188,916.6666870117188
2023-10-11 15:58:32.477137,797.3992919921875,792.967041015625,792.5640869140625,798.6080322265625,1047.216064453125
2023-10-11 15:58:32.479537,793.3699340820312,798.2051391601562,791.3552856445312,792.967041015625,820.7692260742188
2023-10-11 15:58:32.481318,789.3406372070312,800.6226806640625,792.1611938476562,786.1171875,675.3113403320312
2023-10-11 15:58:32.482915,789.3406372070312,803.040283203125,792.1611938476562,788.1318969726562,769.5970458984375
2023-10-11 15:58:32.484467,795.3846435546875,805.054931640625,792.5640869140625,793.7728881835938,767.1795043945312
2023-10-11 15:58:32.517902,796.1904907226562,805.054931640625,797.3992919921875,795.7875366210938,710.3662719726562
2023-10-11 15:58:32.518980,794.1758422851562,803.040283203125,796.996337890625,796.1904907226562,690.6226806640625
2023-10-11 15:58:32.520089,796.1904907226562,803.4432373046875,799.010986328125,790.5494384765625,700.6959838867188
2023-10-11 15:58:32.521172,796.5933837890625,802.2344360351562,801.4285888671875,790.952392578125,754.6886596679688
2023-10-11 15:58:32.522265,800.6226806640625,799.4139404296875,798.6080322265625,790.5494384765625,818.3516235351562
2023-10-11 15:58:32.523270,800.2197875976562,799.4139404296875,800.6226806640625,794.5787353515625,841.7216186523438
2023-10-11 15:58:32.524526,797.8021850585938,797.8021850585938,802.2344360351562,799.8168334960938,940.4395751953125
2023-10-11 15:58:32.526882,795.7875366210938,803.040283203125,801.4285888671875,791.7582397460938,957.7655639648438
2023-10-11 15:58:32.530049,798.6080322265625,805.054931640625,799.8168334960938,786.923095703125,778.05859375
2023-10-11 15:58:32.544096,802.2344360351562,799.010986328125,800.6226806640625,791.7582397460938,769.5970458984375
2023-10-11 15:58:32.545594,794.1758422851562,801.025634765625,803.4432373046875,795.7875366210938,920.6959838867188
2023-10-11 15:58:32.546711,796.5933837890625,804.2490844726562,801.8314819335938,796.996337890625,806.2637329101562
2023-10-11 15:58:32.557081,796.1904907226562,796.996337890625,800.6226806640625,798.2051391601562,690.6226806640625
2023-10-11 15:58:32.558498,790.952392578125,792.5640869140625,798.2051391601562,787.3259887695312,758.7179565429688
2023-10-11 15:58:32.559779,791.7582397460938,797.8021850585938,801.025634765625,783.2966918945312,796.5933837890625
2023-10-11 15:58:32.561525,795.3846435546875,799.4139404296875,804.6520385742188,791.3552856445312,763.5531005859375
2023-10-11 15:58:32.562863,796.5933837890625,797.8021850585938,802.6373901367188,796.1904907226562,695.8607788085938
2023-10-11 15:58:32.564421,794.1758422851562,799.8168334960938,799.4139404296875,794.981689453125,768.3883056640625
2023-10-11 15:58:32.565736,792.1611938476562,803.8461303710938,799.4139404296875,795.3846435546875,1008.1318969726562
2023-10-11 15:58:32.567810,787.3259887695312,805.4578857421875,801.025634765625,792.967041015625,975.091552734375
2023-10-11 15:58:32.569640,785.3113403320312,804.2490844726562,800.6226806640625,785.3113403320312,781.6849975585938
2023-10-11 15:58:32.573660,784.5054931640625,803.4432373046875,799.4139404296875,785.7142944335938,770.4029541015625
2023-10-11 15:58:32.575051,799.010986328125,807.4725341796875,797.8021850585938,798.2051391601562,869.5238037109375
2023-10-11 15:58:32.577160,808.6813354492188,808.6813354492188,798.6080322265625,807.069580078125,736.5567626953125
2023-10-11 15:58:32.589182,785.7142944335938,800.2197875976562,806.6666870117188,791.3552856445312,703.113525390625
2023-10-11 15:58:32.590523,763.9560546875,792.967041015625,814.3223266601562,771.6116943359375,780.879150390625
2023-10-11 15:58:32.591942,759.9267578125,791.7582397460938,813.113525390625,767.9853515625,739.7802124023438
2023-10-11 15:58:32.593503,767.9853515625,791.7582397460938,813.113525390625,768.7911987304688,704.3223266601562
2023-10-11 15:58:32.594940,763.5531005859375,786.1171875,818.7545776367188,781.6849975585938,730.5128173828125
2023-10-11 15:58:32.596672,747.8388061523438,778.05859375,822.3809814453125,782.893798828125,893.6996459960938
2023-10-11 15:58:32.598096,751.062255859375,774.8351440429688,821.97802734375,788.5347900390625,947.6923217773438
2023-10-11 15:58:32.600392,759.5238037109375,774.029296875,823.99267578125,791.7582397460938,754.6886596679688
2023-10-11 15:58:32.602617,765.1648559570312,774.8351440429688,822.3809814453125,780.4761962890625,669.6703491210938
2023-10-11 15:58:32.605520,766.3735961914062,770.0,821.5750732421875,790.1465454101562,927.5457763671875
2023-10-11 15:58:32.607557,756.3003540039062,766.3735961914062,823.5897216796875,788.937744140625,993.2234497070312
2023-10-11 15:58:32.617565,763.9560546875,769.5970458984375,826.8131713867188,798.6080322265625,790.952392578125
2023-10-11 15:58:32.651526,778.4615478515625,773.2234497070312,828.8278198242188,804.6520385742188,745.4212646484375
2023-10-11 15:58:32.653908,781.6849975585938,776.4468994140625,823.5897216796875,796.5933837890625,756.7033081054688
2023-10-11 15:58:32.655382,772.8204956054688,776.4468994140625,817.94873046875,797.8021850585938,731.3186645507812
2023-10-11 15:58:32.656884,767.9853515625,775.2380981445312,819.1575317382812,798.2051391601562,733.3333129882812
2023-10-11 15:58:32.658281,778.05859375,781.6849975585938,823.5897216796875,799.010986328125,759.9267578125
2023-10-11 15:58:32.659679,785.7142944335938,784.1025390625,823.1868286132812,804.2490844726562,816.7399291992188
2023-10-11 15:58:32.661279,780.879150390625,776.8497924804688,819.5604248046875,804.2490844726562,785.7142944335938
2023-10-11 15:58:32.662703,782.4908447265625,779.2673950195312,816.3369750976562,797.3992919921875,705.93408203125
2023-10-11 15:58:32.663972,786.1171875,785.3113403320312,820.7692260742188,796.996337890625,777.2527465820312
2023-10-11 15:58:32.664952,794.5787353515625,788.1318969726562,819.1575317382812,800.6226806640625,973.8828125
2023-10-11 15:58:32.665987,807.4725341796875,791.7582397460938,814.3223266601562,800.2197875976562,810.6959838867188
2023-10-11 15:58:32.667236,817.5457763671875,792.1611938476562,813.113525390625,799.8168334960938,694.6520385742188
2023-10-11 15:58:32.684769,816.7399291992188,792.1611938476562,815.93408203125,794.5787353515625,872.7472534179688
2023-10-11 15:58:32.686505,807.87548828125,794.1758422851562,817.94873046875,803.4432373046875,856.6300659179688
2023-10-11 15:58:32.688968,799.4139404296875,796.996337890625,819.5604248046875,815.1282348632812,769.1941528320312
2023-10-11 15:58:32.690293,788.1318969726562,796.5933837890625,821.5750732421875,814.7252807617188,761.1355590820312
2023-10-11 15:58:32.691702,783.2966918945312,799.8168334960938,820.3662719726562,815.5311279296875,774.4322509765625
2023-10-11 15:58:32.693205,776.0439453125,801.025634765625,819.1575317382812,813.91943359375,820.3662719726562
2023-10-11 15:58:32.694546,767.5823974609375,796.1904907226562,816.7399291992188,808.2783813476562,815.1282348632812
2023-10-11 15:58:32.696112,766.7765502929688,793.7728881835938,814.7252807617188,808.2783813476562,781.6849975585938
2023-10-11 15:58:32.697631,774.029296875,795.7875366210938,818.7545776367188,814.3223266601562,910.2197875976562
2023-10-11 15:58:32.699060,779.6703491210938,798.2051391601562,813.91943359375,807.87548828125,899.3406372070312
2023-10-11 15:58:32.700519,781.2820434570312,799.010986328125,810.2930297851562,799.4139404296875,697.4725341796875
2023-10-11 15:58:32.701897,788.1318969726562,797.3992919921875,809.89013671875,805.4578857421875,732.5274658203125
2023-10-11 15:58:32.717938,787.3259887695312,796.996337890625,805.054931640625,801.8314819335938,836.08056640625
2023-10-11 15:58:32.729881,791.3552856445312,797.8021850585938,803.040283203125,794.981689453125,767.5823974609375
2023-10-11 15:58:32.730725,792.5640869140625,796.1904907226562,801.8314819335938,799.010986328125,729.3040161132812
2023-10-11 15:58:32.732376,790.1465454101562,796.996337890625,804.2490844726562,805.054931640625,804.6520385742188
2023-10-11 15:58:32.734642,787.7289428710938,800.6226806640625,808.2783813476562,802.6373901367188,857.8388061523438
2023-10-11 15:58:32.736540,785.3113403320312,802.6373901367188,810.2930297851562,790.5494384765625,913.040283203125
2023-10-11 15:58:32.739646,785.3113403320312,802.2344360351562,813.113525390625,794.1758422851562,885.2380981445312
2023-10-11 15:58:32.741212,780.0732421875,799.010986328125,814.3223266601562,795.3846435546875,790.1465454101562
2023-10-11 15:58:32.742220,780.879150390625,799.4139404296875,812.7106323242188,787.7289428710938,904.981689453125
2023-10-11 15:58:32.743123,780.4761962890625,803.4432373046875,809.89013671875,786.1171875,831.2454223632812
2023-10-11 15:58:32.744270,778.4615478515625,804.2490844726562,811.098876953125,778.8644409179688,723.2600708007812
2023-10-11 15:58:32.745200,782.087890625,804.6520385742188,814.3223266601562,772.8204956054688,756.7033081054688
2023-10-11 15:58:32.785583,785.3113403320312,802.2344360351562,813.5164794921875,777.2527465820312,735.7509155273438
2023-10-11 15:58:32.787580,785.3113403320312,801.025634765625,811.5018310546875,778.8644409179688,673.6996459960938
2023-10-11 15:58:32.789409,781.2820434570312,803.4432373046875,809.89013671875,775.2380981445312,703.91943359375
2023-10-11 15:58:32.791468,778.8644409179688,804.6520385742188,808.6813354492188,781.2820434570312,816.7399291992188
2023-10-11 15:58:32.794267,773.2234497070312,808.6813354492188,805.4578857421875,765.5677490234375,796.996337890625
2023-10-11 15:58:32.796525,768.7911987304688,809.084228515625,801.8314819335938,756.3003540039062,771.6116943359375
2023-10-11 15:58:32.799227,770.0,803.4432373046875,808.6813354492188,770.8058471679688,806.2637329101562
2023-10-11 15:58:32.800932,764.7619018554688,800.2197875976562,811.098876953125,769.1941528320312,949.7069702148438
2023-10-11 15:58:32.802327,756.7033081054688,807.4725341796875,804.6520385742188,759.120849609375,993.2234497070312
2023-10-11 15:58:32.803605,762.7472534179688,813.5164794921875,804.2490844726562,755.4945068359375,803.8461303710938
2023-10-11 15:58:32.804970,759.5238037109375,806.2637329101562,803.8461303710938,751.4652099609375,748.2417602539062
2023-10-11 15:58:32.806358,748.6447143554688,801.8314819335938,807.4725341796875,752.6740112304688,807.87548828125
2023-10-11 15:58:32.818473,753.076904296875,803.4432373046875,809.89013671875,757.5091552734375,756.3003540039062
2023-10-11 15:58:32.820435,757.5091552734375,799.8168334960938,807.069580078125,757.912109375,746.6300659179688
2023-10-11 15:58:32.822261,743.8095092773438,799.4139404296875,803.4432373046875,753.8828125,799.4139404296875
2023-10-11 15:58:32.831336,745.018310546875,801.025634765625,799.4139404296875,741.3919677734375,757.5091552734375
2023-10-11 15:58:32.832825,757.106201171875,803.4432373046875,799.8168334960938,745.8241577148438,707.5457763671875
2023-10-11 15:58:32.833841,746.6300659179688,802.6373901367188,804.6520385742188,746.6300659179688,734.1392211914062
2023-10-11 15:58:32.834884,740.989013671875,799.8168334960938,808.6813354492188,741.7948608398438,842.930419921875
2023-10-11 15:58:32.835998,750.6593627929688,801.4285888671875,808.6813354492188,753.076904296875,1059.3040771484375
2023-10-11 15:58:32.837272,739.7802124023438,801.4285888671875,808.6813354492188,749.4505615234375,955.3479614257812
2023-10-11 15:58:32.838530,733.3333129882812,799.8168334960938,810.6959838867188,740.989013671875,725.2747192382812
2023-10-11 15:58:32.839820,744.2124633789062,800.6226806640625,811.90478515625,742.1978149414062,730.10986328125
2023-10-11 15:58:32.841099,749.8534545898438,799.010986328125,809.89013671875,752.6740112304688,811.5018310546875
2023-10-11 15:58:32.886680,747.8388061523438,801.025634765625,804.6520385742188,759.5238037109375,801.025634765625
2023-10-11 15:58:32.887982,745.8241577148438,805.054931640625,805.8607788085938,756.3003540039062,782.893798828125
2023-10-11 15:58:32.889545,744.6153564453125,799.4139404296875,813.113525390625,754.6886596679688,744.2124633789062
2023-10-11 15:58:32.890704,745.018310546875,794.5787353515625,812.3076782226562,753.076904296875,701.098876953125
2023-10-11 15:58:32.891777,745.018310546875,800.6226806640625,809.084228515625,753.8828125,743.4066162109375
2023-10-11 15:58:32.893099,745.8241577148438,802.6373901367188,811.5018310546875,747.8388061523438,828.4249267578125
2023-10-11 15:58:32.894321,755.091552734375,805.8607788085938,810.2930297851562,759.120849609375,1010.1465454101562
2023-10-11 15:58:32.896175,756.7033081054688,811.5018310546875,807.87548828125,757.5091552734375,932.7838745117188
2023-10-11 15:58:32.897052,754.2857055664062,806.2637329101562,809.084228515625,750.2564086914062,675.7142944335938
2023-10-11 15:58:32.898020,753.076904296875,800.2197875976562,809.4871826171875,753.076904296875,714.3956298828125
2023-10-11 15:58:32.902878,752.6740112304688,799.8168334960938,811.5018310546875,756.7033081054688,845.7509155273438
2023-10-11 15:58:32.905997,763.1502075195312,799.8168334960938,816.7399291992188,771.6116943359375,853.4066162109375
2023-10-11 15:58:32.916973,761.1355590820312,802.6373901367188,813.91943359375,760.3296508789062,731.3186645507812
2023-10-11 15:58:32.919126,755.8974609375,809.89013671875,809.4871826171875,746.6300659179688,702.3076782226562
2023-10-11 15:58:32.920684,757.106201171875,813.113525390625,808.6813354492188,756.7033081054688,863.8828125
2023-10-11 15:58:32.922311,756.7033081054688,810.6959838867188,813.113525390625,759.5238037109375,838.901123046875
2023-10-11 15:58:32.923954,759.120849609375,807.87548828125,812.7106323242188,759.120849609375,743.4066162109375
2023-10-11 15:58:32.933001,755.091552734375,803.040283203125,813.91943359375,763.5531005859375,860.6593627929688
2023-10-11 15:58:32.934217,755.091552734375,799.8168334960938,819.1575317382812,770.8058471679688,975.8974609375
2023-10-11 15:58:32.935969,766.7765502929688,803.4432373046875,821.1721801757812,782.4908447265625,780.4761962890625
2023-10-11 15:58:32.938054,759.9267578125,809.89013671875,816.7399291992188,777.2527465820312,735.3479614257812
2023-10-11 15:58:32.940304,745.8241577148438,811.098876953125,810.2930297851562,753.8828125,814.3223266601562
2023-10-11 15:58:32.941896,755.4945068359375,809.89013671875,805.4578857421875,753.076904296875,754.6886596679688
2023-10-11 15:58:32.944089,770.4029541015625,814.3223266601562,799.4139404296875,760.7326049804688,669.6703491210938
2023-10-11 15:58:33.002337,765.1648559570312,813.113525390625,798.6080322265625,760.3296508789062,677.3259887695312
2023-10-11 15:58:33.003513,753.8828125,808.6813354492188,803.8461303710938,769.1941528320312,828.8278198242188
2023-10-11 15:58:33.004687,753.076904296875,808.6813354492188,807.069580078125,770.4029541015625,917.069580078125
2023-10-11 15:58:33.005843,754.6886596679688,807.4725341796875,811.5018310546875,760.3296508789062,779.6703491210938
2023-10-11 15:58:33.007027,757.5091552734375,806.2637329101562,814.7252807617188,758.7179565429688,649.120849609375
2023-10-11 15:58:33.008323,762.7472534179688,808.6813354492188,811.098876953125,772.0146484375,834.8717651367188
2023-10-11 15:58:33.009548,755.091552734375,808.6813354492188,806.2637329101562,766.7765502929688,1066.959716796875
2023-10-11 15:58:33.010912,746.6300659179688,803.040283203125,810.2930297851562,745.018310546875,850.1831665039062
2023-10-11 15:58:33.012699,749.4505615234375,806.2637329101562,813.91943359375,751.8681030273438,726.08056640625
2023-10-11 15:58:33.014012,756.7033081054688,812.7106323242188,808.2783813476562,768.3883056640625,809.89013671875
2023-10-11 15:58:33.016862,759.120849609375,812.3076782226562,806.6666870117188,765.970703125,777.2527465820312
2023-10-11 15:58:33.018704,753.8828125,809.4871826171875,808.6813354492188,765.1648559570312,758.7179565429688
2023-10-11 15:58:33.035147,751.4652099609375,806.2637329101562,811.098876953125,765.1648559570312,780.879150390625
2023-10-11 15:58:33.036582,755.091552734375,804.6520385742188,813.91943359375,754.6886596679688,755.4945068359375
2023-10-11 15:58:33.038147,747.032958984375,808.2783813476562,809.084228515625,746.6300659179688,716.8131713867188
2023-10-11 15:58:33.039238,743.8095092773438,811.90478515625,804.6520385742188,746.2271118164062,653.1502075195312
2023-10-11 15:58:33.040790,752.6740112304688,812.7106323242188,803.8461303710938,757.5091552734375,753.8828125
2023-10-11 15:58:33.042105,749.047607421875,804.6520385742188,808.2783813476562,763.1502075195312,959.3773193359375
2023-10-11 15:58:33.043921,746.2271118164062,798.2051391601562,812.7106323242188,756.7033081054688,940.03662109375
2023-10-11 15:58:33.052198,747.4359130859375,801.025634765625,811.90478515625,749.047607421875,752.2710571289062
2023-10-11 15:58:33.054451,747.4359130859375,805.8607788085938,809.4871826171875,748.6447143554688,686.1904907226562
2023-10-11 15:58:33.055884,759.5238037109375,808.6813354492188,807.87548828125,761.94140625,945.6776733398438
2023-10-11 15:58:33.061405,766.7765502929688,807.87548828125,809.084228515625,770.4029541015625,912.6373901367188
2023-10-11 15:58:33.062877,754.6886596679688,801.8314819335938,806.6666870117188,751.4652099609375,711.5750732421875
2023-10-11 15:58:33.074216,749.047607421875,799.010986328125,804.6520385742188,742.1978149414062,710.3662719726562
2023-10-11 15:58:33.076511,752.2710571289062,793.3699340820312,804.2490844726562,752.6740112304688,705.5311279296875
2023-10-11 15:58:33.077700,753.8828125,793.3699340820312,804.2490844726562,760.7326049804688,716.4102783203125
2023-10-11 15:58:33.078832,750.2564086914062,802.6373901367188,800.6226806640625,763.9560546875,770.0
2023-10-11 15:58:33.080354,753.076904296875,801.025634765625,798.6080322265625,759.120849609375,795.7875366210938
2023-10-11 15:58:33.081259,755.4945068359375,803.8461303710938,801.025634765625,755.091552734375,765.5677490234375
2023-10-11 15:58:33.082178,741.3919677734375,807.069580078125,801.025634765625,748.2417602539062,741.7948608398438
2023-10-11 15:58:33.083211,744.6153564453125,803.4432373046875,796.996337890625,744.6153564453125,743.003662109375
2023-10-11 15:58:33.084292,763.1502075195312,805.8607788085938,794.1758422851562,754.2857055664062,927.1428833007812
2023-10-11 15:58:33.085528,749.047607421875,802.2344360351562,797.3992919921875,753.8828125,974.2857055664062
2023-10-11 15:58:33.086889,741.7948608398438,803.8461303710938,799.010986328125,743.003662109375,712.3809814453125
2023-10-11 15:58:33.088249,754.6886596679688,805.4578857421875,803.4432373046875,752.2710571289062,664.8351440429688
2023-10-11 15:58:33.103345,755.091552734375,801.8314819335938,808.2783813476562,765.5677490234375,819.5604248046875
2023-10-11 15:58:33.104802,765.1648559570312,804.6520385742188,812.3076782226562,776.8497924804688,819.96337890625
2023-10-11 15:58:33.106270,770.8058471679688,809.89013671875,811.90478515625,778.4615478515625,771.2088012695312
2023-10-11 15:58:33.108349,773.6264038085938,809.4871826171875,810.2930297851562,770.0,737.7655639648438
2023-10-11 15:58:33.110065,776.0439453125,809.4871826171875,811.098876953125,767.5823974609375,698.6813354492188
2023-10-11 15:58:33.111794,767.9853515625,809.084228515625,805.054931640625,769.1941528320312,778.8644409179688
2023-10-11 15:58:33.113416,770.4029541015625,807.4725341796875,799.4139404296875,770.4029541015625,892.4908447265625
2023-10-11 15:58:33.115029,766.7765502929688,806.2637329101562,797.3992919921875,765.1648559570312,909.8168334960938
2023-10-11 15:58:33.116962,760.3296508789062,803.4432373046875,801.8314819335938,759.9267578125,953.3333129882812
2023-10-11 15:58:33.126186,760.7326049804688,803.040283203125,807.069580078125,755.4945068359375,781.6849975585938
2023-10-11 15:58:33.127563,761.5384521484375,805.4578857421875,810.2930297851562,766.7765502929688,714.3956298828125
2023-10-11 15:58:33.129031,761.94140625,809.89013671875,805.054931640625,773.2234497070312,832.8571166992188
2023-10-11 15:58:33.168980,762.3442993164062,811.5018310546875,797.8021850585938,765.5677490234375,879.1941528320312
2023-10-11 15:58:33.170375,764.3589477539062,808.2783813476562,797.3992919921875,759.5238037109375,776.0439453125
2023-10-11 15:58:33.171723,757.106201171875,802.6373901367188,804.6520385742188,754.2857055664062,679.3406372070312
2023-10-11 15:58:33.173386,753.4798583984375,801.025634765625,807.87548828125,770.4029541015625,737.3626098632812
2023-10-11 15:58:33.174610,763.9560546875,803.4432373046875,804.6520385742188,788.1318969726562,794.5787353515625
2023-10-11 15:58:33.175797,779.6703491210938,810.6959838867188,798.6080322265625,776.8497924804688,830.03662109375
2023-10-11 15:58:33.176871,786.1171875,814.3223266601562,797.8021850585938,776.8497924804688,821.1721801757812
2023-10-11 15:58:33.178753,770.8058471679688,809.89013671875,799.4139404296875,779.2673950195312,822.7838745117188
2023-10-11 15:58:33.180106,759.5238037109375,806.2637329101562,799.010986328125,768.7911987304688,837.6923217773438
2023-10-11 15:58:33.182048,770.0,805.8607788085938,803.040283203125,777.2527465820312,773.2234497070312
2023-10-11 15:58:33.183795,776.8497924804688,809.084228515625,803.4432373046875,778.05859375,772.4176025390625
2023-10-11 15:58:33.185233,773.6264038085938,805.8607788085938,803.8461303710938,770.8058471679688,804.2490844726562
2023-10-11 15:58:33.211908,778.4615478515625,806.2637329101562,808.2783813476562,776.8497924804688,720.4395751953125
2023-10-11 15:58:33.214878,774.4322509765625,807.87548828125,809.4871826171875,774.8351440429688,687.8021850585938
2023-10-11 15:58:33.216239,767.9853515625,803.4432373046875,812.7106323242188,778.8644409179688,776.4468994140625
2023-10-11 15:58:33.219444,770.4029541015625,801.4285888671875,813.113525390625,786.923095703125,855.4212646484375
2023-10-11 15:58:33.221504,772.4176025390625,803.040283203125,811.5018310546875,786.1171875,767.1795043945312
2023-10-11 15:58:33.223413,775.6410522460938,803.4432373046875,809.89013671875,775.2380981445312,728.4981689453125
2023-10-11 15:58:33.224890,778.8644409179688,803.040283203125,806.6666870117188,775.2380981445312,757.106201171875
2023-10-11 15:58:33.232493,771.6116943359375,801.8314819335938,807.069580078125,787.3259887695312,946.4835205078125
2023-10-11 15:58:33.234241,761.5384521484375,800.2197875976562,809.084228515625,781.6849975585938,916.6666870117188
2023-10-11 15:58:33.235891,758.7179565429688,797.3992919921875,812.3076782226562,768.3883056640625,749.047607421875
2023-10-11 15:58:33.240614,763.5531005859375,797.8021850585938,809.084228515625,768.7911987304688,724.4688720703125
2023-10-11 15:58:33.253031,767.5823974609375,798.2051391601562,810.2930297851562,777.6557006835938,681.7582397460938
2023-10-11 15:58:33.267896,762.7472534179688,796.996337890625,816.7399291992188,785.7142944335938,688.2051391601562
2023-10-11 15:58:33.269594,761.1355590820312,797.8021850585938,814.7252807617188,785.7142944335938,735.7509155273438
2023-10-11 15:58:33.271137,770.8058471679688,797.8021850585938,811.098876953125,782.893798828125,753.8828125
2023-10-11 15:58:33.272938,778.8644409179688,799.4139404296875,811.5018310546875,788.937744140625,740.5860595703125
2023-10-11 15:58:33.274565,778.8644409179688,799.010986328125,811.098876953125,786.923095703125,728.901123046875
2023-10-11 15:58:33.275794,770.4029541015625,792.1611938476562,808.2783813476562,790.1465454101562,808.2783813476562
2023-10-11 15:58:33.277528,775.6410522460938,794.5787353515625,808.6813354492188,792.967041015625,1044.798583984375
2023-10-11 15:58:33.278856,780.4761962890625,796.1904907226562,811.098876953125,778.4615478515625,1039.96337890625
2023-10-11 15:58:33.280266,782.087890625,792.5640869140625,809.084228515625,772.0146484375,735.7509155273438
2023-10-11 15:58:33.282540,783.2966918945312,794.981689453125,805.8607788085938,772.0146484375,652.7472534179688
2023-10-11 15:58:33.283782,782.087890625,790.5494384765625,805.054931640625,783.2966918945312,799.4139404296875
2023-10-11 15:58:33.285018,798.2051391601562,790.1465454101562,804.6520385742188,786.5201416015625,803.8461303710938
2023-10-11 15:58:33.302058,810.6959838867188,794.1758422851562,808.2783813476562,785.3113403320312,734.1392211914062
2023-10-11 15:58:33.304116,807.4725341796875,792.967041015625,813.113525390625,784.908447265625,695.054931640625
2023-10-11 15:58:33.305661,796.996337890625,790.5494384765625,811.5018310546875,776.0439453125,668.8644409179688
2023-10-11 15:58:33.307186,795.3846435546875,792.967041015625,810.6959838867188,790.952392578125,696.2637329101562
2023-10-11 15:58:33.309137,791.3552856445312,796.5933837890625,811.5018310546875,807.069580078125,731.7216186523438
2023-10-11 15:58:33.311451,767.1795043945312,795.3846435546875,812.3076782226562,806.2637329101562,888.8644409179688
2023-10-11 15:58:33.312666,758.7179565429688,794.1758422851562,813.5164794921875,804.6520385742188,1021.8314819335938
2023-10-11 15:58:33.314046,766.7765502929688,790.1465454101562,810.6959838867188,797.8021850585938,861.4652099609375
2023-10-11 15:58:33.315567,769.5970458984375,790.952392578125,809.084228515625,799.8168334960938,718.02197265625
2023-10-11 15:58:33.319018,766.7765502929688,795.7875366210938,811.5018310546875,795.7875366210938,830.03662109375
2023-10-11 15:58:33.321586,760.3296508789062,793.7728881835938,812.7106323242188,784.908447265625,992.4176025390625
2023-10-11 15:58:33.325274,767.9853515625,794.1758422851562,809.4871826171875,782.893798828125,806.2637329101562
2023-10-11 15:58:33.335570,778.05859375,796.5933837890625,806.6666870117188,784.1025390625,670.4761962890625
2023-10-11 15:58:33.347448,779.2673950195312,796.996337890625,802.6373901367188,778.4615478515625,751.8681030273438
2023-10-11 15:58:33.349482,776.4468994140625,795.3846435546875,802.6373901367188,774.4322509765625,778.8644409179688
2023-10-11 15:58:33.351372,774.029296875,793.3699340820312,809.084228515625,785.3113403320312,757.912109375
2023-10-11 15:58:33.353217,784.1025390625,794.981689453125,810.6959838867188,782.087890625,724.8717651367188
2023-10-11 15:58:33.354995,796.1904907226562,798.6080322265625,810.6959838867188,782.087890625,803.8461303710938
2023-10-11 15:58:33.357536,793.7728881835938,799.8168334960938,809.084228515625,790.5494384765625,835.2747192382812
2023-10-11 15:58:33.359362,781.2820434570312,797.3992919921875,807.87548828125,789.7435913085938,763.1502075195312
2023-10-11 15:58:33.360985,784.1025390625,795.3846435546875,809.084228515625,788.1318969726562,748.6447143554688
2023-10-11 15:58:33.362601,796.5933837890625,797.3992919921875,809.4871826171875,804.2490844726562,911.4285888671875
2023-10-11 15:58:33.364202,799.8168334960938,802.6373901367188,805.054931640625,795.7875366210938,882.8204956054688
2023-10-11 15:58:33.365577,786.5201416015625,803.040283203125,800.6226806640625,782.4908447265625,663.2234497070312
2023-10-11 15:58:33.401999,772.8204956054688,797.8021850585938,804.6520385742188,791.7582397460938,734.5421142578125
2023-10-11 15:58:33.404184,774.029296875,796.5933837890625,804.2490844726562,780.0732421875,851.3919677734375
2023-10-11 15:58:33.405513,775.2380981445312,794.5787353515625,806.2637329101562,775.2380981445312,784.5054931640625
2023-10-11 15:58:33.407096,783.6996459960938,794.5787353515625,811.5018310546875,789.3406372070312,700.6959838867188
2023-10-11 15:58:33.409464,788.1318969726562,793.7728881835938,812.7106323242188,795.3846435546875,712.7838745117188
2023-10-11 15:58:33.411443,782.087890625,792.1611938476562,806.2637329101562,795.3846435546875,857.032958984375
2023-10-11 15:58:33.413114,785.7142944335938,795.3846435546875,797.3992919921875,799.8168334960938,888.4615478515625
2023-10-11 15:58:33.414468,786.5201416015625,797.3992919921875,795.7875366210938,784.5054931640625,740.989013671875
2023-10-11 15:58:33.415689,779.2673950195312,795.7875366210938,796.996337890625,774.029296875,709.96337890625
2023-10-11 15:58:33.420998,770.8058471679688,794.1758422851562,799.010986328125,788.1318969726562,876.7765502929688
2023-10-11 15:58:33.423104,784.908447265625,796.1904907226562,794.1758422851562,799.8168334960938,823.5897216796875
2023-10-11 15:58:33.426327,803.4432373046875,803.040283203125,790.5494384765625,803.4432373046875,761.94140625
2023-10-11 15:58:33.440323,800.2197875976562,799.8168334960938,797.8021850585938,797.3992919921875,820.3662719726562
2023-10-11 15:58:33.441504,783.6996459960938,796.996337890625,800.6226806640625,773.2234497070312,763.9560546875
2023-10-11 15:58:33.442686,779.2673950195312,797.3992919921875,805.4578857421875,782.087890625,645.091552734375
2023-10-11 15:58:33.450224,796.5933837890625,798.2051391601562,807.069580078125,802.6373901367188,693.040283203125
2023-10-11 15:58:33.451506,809.89013671875,797.3992919921875,800.6226806640625,809.084228515625,786.923095703125
2023-10-11 15:58:33.452751,807.069580078125,793.3699340820312,803.8461303710938,806.2637329101562,810.6959838867188
2023-10-11 15:58:33.453980,793.3699340820312,793.7728881835938,808.2783813476562,789.3406372070312,797.3992919921875
2023-10-11 15:58:33.455192,789.7435913085938,792.967041015625,807.87548828125,788.937744140625,724.06591796875
2023-10-11 15:58:33.456562,797.8021850585938,794.1758422851562,808.6813354492188,800.6226806640625,862.6740112304688
2023-10-11 15:58:33.457801,805.4578857421875,797.8021850585938,803.8461303710938,809.084228515625,937.2161254882812
2023-10-11 15:58:33.459735,805.054931640625,800.2197875976562,802.6373901367188,808.2783813476562,772.8204956054688
2023-10-11 15:58:33.461286,794.981689453125,800.6226806640625,805.054931640625,793.7728881835938,716.4102783203125
2023-10-11 15:58:33.468514,788.1318969726562,799.4139404296875,799.4139404296875,771.6116943359375,721.2454223632812
2023-10-11 15:58:33.469821,796.996337890625,803.8461303710938,801.8314819335938,784.1025390625,672.087890625
2023-10-11 15:58:33.471091,803.8461303710938,805.054931640625,807.4725341796875,812.7106323242188,695.4578857421875
2023-10-11 15:58:33.472485,802.2344360351562,799.4139404296875,807.87548828125,807.87548828125,811.90478515625
2023-10-11 15:58:33.473723,798.6080322265625,797.3992919921875,806.6666870117188,796.1904907226562,820.7692260742188
2023-10-11 15:58:33.474951,794.1758422851562,799.4139404296875,803.8461303710938,790.1465454101562,759.9267578125
2023-10-11 15:58:33.476301,792.1611938476562,799.4139404296875,803.8461303710938,792.1611938476562,778.4615478515625
2023-10-11 15:58:33.477525,790.952392578125,798.2051391601562,805.8607788085938,802.2344360351562,819.96337890625
2023-10-11 15:58:33.478727,794.981689453125,797.8021850585938,802.6373901367188,805.8607788085938,975.8974609375
2023-10-11 15:58:33.479831,804.6520385742188,795.7875366210938,800.2197875976562,799.8168334960938,823.99267578125
2023-10-11 15:58:33.481093,803.040283203125,796.1904907226562,801.025634765625,800.6226806640625,648.3150024414062
2023-10-11 15:58:33.482271,801.025634765625,795.3846435546875,802.2344360351562,801.8314819335938,711.5750732421875
2023-10-11 15:58:33.535101,793.7728881835938,793.3699340820312,804.2490844726562,797.3992919921875,760.3296508789062
2023-10-11 15:58:33.537064,791.7582397460938,794.5787353515625,805.054931640625,798.2051391601562,786.5201416015625
2023-10-11 15:58:33.538625,806.6666870117188,801.8314819335938,802.2344360351562,809.4871826171875,747.4359130859375
2023-10-11 15:58:33.540223,816.7399291992188,803.8461303710938,805.4578857421875,821.1721801757812,699.084228515625
2023-10-11 15:58:33.541966,805.4578857421875,796.5933837890625,810.6959838867188,809.4871826171875,699.89013671875
2023-10-11 15:58:33.549660,802.2344360351562,796.1904907226562,808.6813354492188,805.054931640625,765.5677490234375
2023-10-11 15:58:33.550857,804.2490844726562,796.1904907226562,808.2783813476562,806.6666870117188,811.5018310546875
2023-10-11 15:58:33.552118,798.6080322265625,792.967041015625,807.4725341796875,806.2637329101562,951.3186645507812
2023-10-11 15:58:33.553280,798.2051391601562,789.3406372070312,805.054931640625,811.90478515625,940.03662109375
2023-10-11 15:58:33.555030,791.3552856445312,785.7142944335938,809.084228515625,805.4578857421875,686.1904907226562
2023-10-11 15:58:33.556849,783.2966918945312,782.087890625,806.6666870117188,786.5201416015625,731.3186645507812
2023-10-11 15:58:33.558421,792.1611938476562,783.2966918945312,803.040283203125,800.2197875976562,892.087890625
2023-10-11 15:58:33.571855,795.3846435546875,788.5347900390625,810.6959838867188,815.5311279296875,799.4139404296875
2023-10-11 15:58:33.573493,791.7582397460938,787.7289428710938,814.3223266601562,808.2783813476562,668.05859375
2023-10-11 15:58:33.575125,796.1904907226562,786.923095703125,812.3076782226562,804.2490844726562,681.3552856445312
2023-10-11 15:58:33.576878,801.025634765625,791.3552856445312,813.5164794921875,811.098876953125,752.2710571289062
2023-10-11 15:58:33.578263,796.996337890625,794.981689453125,813.91943359375,815.93408203125,798.6080322265625
2023-10-11 15:58:33.579976,794.5787353515625,798.2051391601562,816.3369750976562,815.93408203125,816.3369750976562
2023-10-11 15:58:33.581348,794.1758422851562,796.996337890625,816.3369750976562,814.3223266601562,813.113525390625
2023-10-11 15:58:33.582873,787.3259887695312,796.996337890625,812.3076782226562,807.87548828125,909.8168334960938
2023-10-11 15:58:33.584450,786.1171875,797.3992919921875,805.4578857421875,813.5164794921875,891.2820434570312
2023-10-11 15:58:33.586198,794.981689453125,792.967041015625,805.4578857421875,815.93408203125,835.6776733398438
2023-10-11 15:58:33.587764,801.4285888671875,796.1904907226562,809.4871826171875,806.6666870117188,842.12451171875
2023-10-11 15:58:33.589409,792.967041015625,799.4139404296875,808.6813354492188,794.5787353515625,842.930419921875
2023-10-11 15:58:33.634075,793.3699340820312,796.996337890625,807.87548828125,799.8168334960938,710.3662719726562
2023-10-11 15:58:33.635524,808.2783813476562,799.4139404296875,807.4725341796875,815.93408203125,695.4578857421875
2023-10-11 15:58:33.636707,810.6959838867188,803.4432373046875,810.6959838867188,812.7106323242188,808.6813354492188
2023-10-11 15:58:33.637898,796.5933837890625,801.4285888671875,808.2783813476562,802.6373901367188,808.6813354492188
2023-10-11 15:58:33.639004,797.3992919921875,799.010986328125,805.4578857421875,804.2490844726562,732.5274658203125
2023-10-11 15:58:33.640173,803.8461303710938,799.8168334960938,805.4578857421875,809.4871826171875,719.6337280273438
2023-10-11 15:58:33.641186,799.8168334960938,800.2197875976562,802.2344360351562,809.89013671875,896.923095703125
2023-10-11 15:58:33.648145,790.952392578125,799.8168334960938,805.4578857421875,808.6813354492188,973.4798583984375
2023-10-11 15:58:33.649291,791.7582397460938,796.996337890625,803.8461303710938,805.054931640625,788.1318969726562
2023-10-11 15:58:33.650373,804.2490844726562,798.2051391601562,801.8314819335938,809.084228515625,686.5933837890625
2023-10-11 15:58:33.651445,805.4578857421875,799.4139404296875,803.8461303710938,821.1721801757812,720.03662109375
2023-10-11 15:58:33.652452,797.3992919921875,796.996337890625,802.6373901367188,819.5604248046875,794.981689453125
2023-10-11 15:58:33.673351,796.996337890625,799.4139404296875,799.8168334960938,815.93408203125,779.6703491210938
2023-10-11 15:58:33.674684,802.6373901367188,801.4285888671875,798.2051391601562,811.5018310546875,782.893798828125
2023-10-11 15:58:33.675877,803.8461303710938,802.6373901367188,803.4432373046875,806.6666870117188,832.4542236328125
2023-10-11 15:58:33.677091,800.6226806640625,801.8314819335938,802.2344360351562,811.90478515625,722.4542236328125
2023-10-11 15:58:33.678712,801.025634765625,800.6226806640625,797.3992919921875,811.5018310546875,662.8204956054688
2023-10-11 15:58:33.680629,805.054931640625,801.4285888671875,802.2344360351562,812.3076782226562,818.7545776367188
2023-10-11 15:58:33.681954,801.025634765625,798.2051391601562,801.4285888671875,806.6666870117188,1041.5750732421875
2023-10-11 15:58:33.683504,805.8607788085938,794.981689453125,798.2051391601562,797.8021850585938,855.018310546875
2023-10-11 15:58:33.684836,812.3076782226562,800.6226806640625,801.025634765625,806.6666870117188,681.3552856445312
2023-10-11 15:58:33.686521,803.4432373046875,803.8461303710938,800.2197875976562,796.996337890625,745.4212646484375
2023-10-11 15:58:33.688017,796.1904907226562,801.025634765625,799.4139404296875,782.4908447265625,808.2783813476562
2023-10-11 15:58:33.689196,792.5640869140625,796.5933837890625,801.4285888671875,784.1025390625,812.3076782226562
2023-10-11 15:58:33.740494,793.3699340820312,795.3846435546875,803.8461303710938,795.3846435546875,761.5384521484375
2023-10-11 15:58:33.741893,800.2197875976562,797.8021850585938,802.2344360351562,809.084228515625,747.8388061523438
2023-10-11 15:58:33.743075,805.054931640625,794.981689453125,797.3992919921875,802.6373901367188,806.2637329101562
2023-10-11 15:58:33.744387,808.2783813476562,797.8021850585938,799.4139404296875,801.8314819335938,798.6080322265625
2023-10-11 15:58:33.745625,801.025634765625,802.2344360351562,801.8314819335938,794.5787353515625,757.912109375
2023-10-11 15:58:33.746771,792.5640869140625,797.8021850585938,803.040283203125,792.5640869140625,948.09521484375
2023-10-11 15:58:33.748671,790.952392578125,791.3552856445312,807.069580078125,792.967041015625,1035.128173828125
2023-10-11 15:58:33.750278,792.967041015625,792.1611938476562,803.040283203125,797.8021850585938,778.8644409179688
2023-10-11 15:58:33.752268,791.3552856445312,796.996337890625,799.8168334960938,806.6666870117188,753.076904296875
2023-10-11 15:58:33.764783,781.6849975585938,800.2197875976562,802.2344360351562,797.3992919921875,921.098876953125
2023-10-11 15:58:33.766787,780.0732421875,800.2197875976562,800.2197875976562,796.1904907226562,855.018310546875
2023-10-11 15:58:33.769134,776.8497924804688,795.7875366210938,803.4432373046875,792.967041015625,696.6666870117188
2023-10-11 15:58:33.770869,767.9853515625,795.3846435546875,808.6813354492188,788.937744140625,688.6080322265625
2023-10-11 15:58:33.772099,775.6410522460938,796.5933837890625,807.069580078125,791.7582397460938,764.3589477539062
2023-10-11 15:58:33.773379,794.1758422851562,799.4139404296875,807.87548828125,800.2197875976562,802.2344360351562
2023-10-11 15:58:33.774764,797.8021850585938,803.4432373046875,807.4725341796875,803.4432373046875,764.7619018554688
2023-10-11 15:58:33.776096,786.5201416015625,801.4285888671875,802.6373901367188,784.5054931640625,780.0732421875
2023-10-11 15:58:33.777286,784.1025390625,799.8168334960938,804.2490844726562,779.6703491210938,832.05126953125
2023-10-11 15:58:33.778711,784.908447265625,798.6080322265625,808.6813354492188,786.923095703125,833.2600708007812
2023-10-11 15:58:33.780190,780.879150390625,796.1904907226562,805.4578857421875,779.6703491210938,863.076904296875
2023-10-11 15:58:33.782041,788.937744140625,794.981689453125,801.025634765625,782.893798828125,832.05126953125
2023-10-11 15:58:33.784614,805.4578857421875,796.5933837890625,803.040283203125,792.1611938476562,940.8424682617188
2023-10-11 15:58:33.786203,799.010986328125,797.8021850585938,800.2197875976562,779.6703491210938,809.4871826171875
2023-10-11 15:58:33.787871,790.952392578125,800.6226806640625,801.8314819335938,778.05859375,674.5054931640625
2023-10-11 15:58:33.803061,793.7728881835938,799.8168334960938,806.6666870117188,790.952392578125,759.9267578125
2023-10-11 15:58:33.805358,789.7435913085938,794.1758422851562,804.6520385742188,785.7142944335938,779.6703491210938
2023-10-11 15:58:33.807954,794.981689453125,791.3552856445312,803.8461303710938,791.3552856445312,726.886474609375
2023-10-11 15:58:33.809803,804.6520385742188,795.7875366210938,803.8461303710938,807.87548828125,716.00732421875
2023-10-11 15:58:33.811728,807.4725341796875,799.010986328125,798.2051391601562,805.4578857421875,786.923095703125
2023-10-11 15:58:33.814089,798.2051391601562,799.010986328125,795.3846435546875,799.8168334960938,884.4322509765625
2023-10-11 15:58:33.815918,789.7435913085938,801.4285888671875,797.3992919921875,799.8168334960938,877.9853515625
2023-10-11 15:58:33.816864,795.7875366210938,805.054931640625,799.4139404296875,805.4578857421875,774.8351440429688
2023-10-11 15:58:33.817708,798.2051391601562,800.2197875976562,804.2490844726562,807.4725341796875,860.6593627929688
2023-10-11 15:58:33.818814,799.8168334960938,794.981689453125,803.040283203125,813.91943359375,925.1282348632812
2023-10-11 15:58:33.819898,807.4725341796875,797.3992919921875,801.025634765625,821.97802734375,770.4029541015625
2023-10-11 15:58:33.825128,804.6520385742188,798.2051391601562,803.040283203125,818.7545776367188,765.1648559570312
2023-10-11 15:58:33.868461,792.1611938476562,798.6080322265625,802.2344360351562,811.098876953125,871.5384521484375
2023-10-11 15:58:33.869495,783.2966918945312,795.3846435546875,797.8021850585938,802.2344360351562,773.2234497070312
2023-10-11 15:58:33.870396,787.7289428710938,791.7582397460938,798.2051391601562,801.4285888671875,693.4432373046875
2023-10-11 15:58:33.871259,798.2051391601562,799.4139404296875,799.010986328125,810.6959838867188,755.091552734375
2023-10-11 15:58:33.872181,794.1758422851562,805.8607788085938,793.3699340820312,799.4139404296875,782.087890625
2023-10-11 15:58:33.873062,782.4908447265625,800.2197875976562,793.3699340820312,765.1648559570312,808.2783813476562
2023-10-11 15:58:33.873906,780.0732421875,794.981689453125,800.2197875976562,773.2234497070312,822.7838745117188
2023-10-11 15:58:33.874800,788.1318969726562,803.040283203125,797.8021850585938,795.7875366210938,824.7985229492188
2023-10-11 15:58:33.876356,778.05859375,801.025634765625,794.1758422851562,793.3699340820312,958.5714111328125
2023-10-11 15:58:33.877733,772.8204956054688,792.1611938476562,793.7728881835938,771.6116943359375,863.4798583984375
2023-10-11 15:58:33.878657,783.6996459960938,797.8021850585938,794.5787353515625,764.7619018554688,763.1502075195312
2023-10-11 15:58:33.879482,784.908447265625,799.010986328125,793.7728881835938,784.1025390625,779.2673950195312
2023-10-11 15:58:33.910094,790.1465454101562,798.6080322265625,799.010986328125,782.893798828125,773.2234497070312
2023-10-11 15:58:33.912118,791.7582397460938,800.2197875976562,796.5933837890625,782.893798828125,737.3626098632812
2023-10-11 15:58:33.913870,797.3992919921875,797.8021850585938,796.996337890625,796.1904907226562,737.7655639648438
2023-10-11 15:58:33.915195,811.5018310546875,805.054931640625,803.4432373046875,807.4725341796875,793.3699340820312
2023-10-11 15:58:33.916531,810.2930297851562,804.2490844726562,799.4139404296875,806.2637329101562,765.1648559570312
2023-10-11 15:58:33.917781,805.4578857421875,791.3552856445312,807.4725341796875,813.91943359375,720.03662109375
2023-10-11 15:58:33.918841,793.3699340820312,782.893798828125,809.084228515625,805.054931640625,779.2673950195312
2023-10-11 15:58:33.920977,800.2197875976562,787.3259887695312,804.2490844726562,807.4725341796875,917.069580078125
2023-10-11 15:58:33.922213,811.90478515625,790.952392578125,800.6226806640625,829.6337280273438,923.91943359375
2023-10-11 15:58:33.923540,804.6520385742188,787.3259887695312,801.4285888671875,829.2307739257812,718.8278198242188
2023-10-11 15:58:33.924769,798.6080322265625,788.937744140625,803.4432373046875,819.5604248046875,689.010986328125
2023-10-11 15:58:33.927189,794.1758422851562,789.3406372070312,802.6373901367188,810.6959838867188,771.6116943359375
2023-10-11 15:58:33.968700,790.952392578125,787.7289428710938,809.084228515625,811.098876953125,769.1941528320312
2023-10-11 15:58:33.975864,790.5494384765625,794.1758422851562,809.89013671875,805.4578857421875,756.3003540039062
2023-10-11 15:58:33.978087,778.8644409179688,795.3846435546875,799.8168334960938,789.3406372070312,765.5677490234375
2023-10-11 15:58:33.979965,771.6116943359375,794.5787353515625,794.981689453125,781.2820434570312,819.5604248046875
2023-10-11 15:58:33.981464,768.7911987304688,796.5933837890625,796.996337890625,783.2966918945312,766.3735961914062
2023-10-11 15:58:33.982899,766.3735961914062,799.010986328125,800.2197875976562,783.6996459960938,747.4359130859375
2023-10-11 15:58:33.985600,775.6410522460938,798.2051391601562,795.7875366210938,778.8644409179688,913.8461303710938
2023-10-11 15:58:33.987300,790.952392578125,800.6226806640625,796.1904907226562,784.908447265625,1048.4249267578125
2023-10-11 15:58:33.989166,791.7582397460938,806.6666870117188,798.2051391601562,782.893798828125,828.8278198242188
2023-10-11 15:58:33.992138,793.7728881835938,803.8461303710938,792.5640869140625,772.8204956054688,687.3992919921875
2023-10-11 15:58:33.995579,805.8607788085938,805.054931640625,792.1611938476562,777.6557006835938,737.7655639648438
2023-10-11 15:58:33.997268,819.1575317382812,811.098876953125,800.2197875976562,780.879150390625,757.5091552734375
2023-10-11 15:58:33.999061,828.8278198242188,810.6959838867188,807.87548828125,787.3259887695312,712.7838745117188
2023-10-11 15:58:34.000386,823.1868286132812,805.054931640625,805.4578857421875,796.1904907226562,697.069580078125
2023-10-11 15:58:34.001554,808.6813354492188,800.2197875976562,805.4578857421875,796.1904907226562,791.7582397460938
2023-10-11 15:58:34.002739,793.3699340820312,799.8168334960938,806.6666870117188,806.6666870117188,845.3479614257812
2023-10-11 15:58:34.004005,784.5054931640625,802.2344360351562,808.2783813476562,817.1428833007812,826.4102783203125
2023-10-11 15:58:34.005673,783.6996459960938,800.2197875976562,807.87548828125,817.94873046875,814.7252807617188
2023-10-11 15:58:34.007518,786.923095703125,800.6226806640625,807.069580078125,817.94873046875,943.2600708007812
2023-10-11 15:58:34.008913,787.7289428710938,804.2490844726562,809.89013671875,819.1575317382812,981.1355590820312
2023-10-11 15:58:34.010157,787.3259887695312,808.6813354492188,812.3076782226562,823.5897216796875,773.2234497070312
2023-10-11 15:58:34.012299,789.3406372070312,810.2930297851562,807.4725341796875,816.3369750976562,754.2857055664062
2023-10-11 15:58:34.013818,794.1758422851562,809.89013671875,805.4578857421875,811.5018310546875,886.0439453125
2023-10-11 15:58:34.015792,793.3699340820312,810.2930297851562,812.7106323242188,809.89013671875,802.6373901367188
2023-10-11 15:58:34.045396,790.1465454101562,807.069580078125,812.3076782226562,802.2344360351562,687.8021850585938
2023-10-11 15:58:34.046556,792.5640869140625,803.4432373046875,807.87548828125,795.7875366210938,745.018310546875
2023-10-11 15:58:34.047616,792.1611938476562,803.4432373046875,807.87548828125,794.981689453125,789.7435913085938
2023-10-11 15:58:34.059098,791.7582397460938,801.8314819335938,808.2783813476562,792.1611938476562,761.5384521484375
2023-10-11 15:58:34.060646,794.5787353515625,800.2197875976562,807.87548828125,787.7289428710938,717.6190185546875
2023-10-11 15:58:34.062241,793.7728881835938,801.4285888671875,806.6666870117188,790.952392578125,819.96337890625
2023-10-11 15:58:34.063825,790.1465454101562,800.6226806640625,799.010986328125,791.3552856445312,1004.1025390625
2023-10-11 15:58:34.065618,788.5347900390625,804.6520385742188,796.5933837890625,782.4908447265625,881.6116943359375
2023-10-11 15:58:34.066787,784.908447265625,806.6666870117188,797.8021850585938,782.087890625,757.912109375
2023-10-11 15:58:34.068434,791.3552856445312,803.040283203125,792.967041015625,784.5054931640625,803.4432373046875
2023-10-11 15:58:34.069826,796.996337890625,804.2490844726562,795.3846435546875,786.923095703125,902.967041015625
2023-10-11 15:58:34.071719,789.7435913085938,805.054931640625,799.010986328125,785.7142944335938,762.7472534179688
2023-10-11 15:58:34.101717,793.7728881835938,800.2197875976562,797.3992919921875,789.3406372070312,680.1465454101562
2023-10-11 15:58:34.103073,805.8607788085938,798.2051391601562,793.7728881835938,801.8314819335938,751.4652099609375
2023-10-11 15:58:34.104632,819.1575317382812,803.8461303710938,795.7875366210938,812.3076782226562,810.6959838867188
2023-10-11 15:58:34.106706,813.5164794921875,805.4578857421875,801.025634765625,806.6666870117188,775.6410522460938
2023-10-11 15:58:34.110520,801.8314819335938,801.4285888671875,798.2051391601562,802.6373901367188,687.8021850585938
2023-10-11 15:58:34.113045,811.098876953125,803.8461303710938,796.5933837890625,811.5018310546875,796.996337890625
2023-10-11 15:58:34.115582,813.91943359375,806.6666870117188,799.010986328125,815.1282348632812,853.8095092773438
2023-10-11 15:58:34.117989,809.084228515625,806.6666870117188,797.8021850585938,811.90478515625,829.2307739257812
2023-10-11 15:58:34.120244,805.4578857421875,801.4285888671875,795.7875366210938,804.2490844726562,820.3662719726562
2023-10-11 15:58:34.122347,805.4578857421875,803.040283203125,797.8021850585938,804.2490844726562,936.00732421875
2023-10-11 15:58:34.124110,797.3992919921875,809.084228515625,798.2051391601562,799.4139404296875,865.091552734375
2023-10-11 15:58:34.125582,791.3552856445312,807.069580078125,796.5933837890625,786.5201416015625,674.5054931640625
2023-10-11 15:58:34.138649,801.025634765625,805.8607788085938,797.3992919921875,794.5787353515625,806.2637329101562
2023-10-11 15:58:34.141898,802.2344360351562,804.2490844726562,794.981689453125,798.2051391601562,886.0439453125
2023-10-11 15:58:34.143618,790.952392578125,802.2344360351562,797.3992919921875,793.3699340820312,730.10986328125
2023-10-11 15:58:34.145160,783.6996459960938,801.4285888671875,799.010986328125,792.5640869140625,612.4542236328125
2023-10-11 15:58:34.148449,787.3259887695312,801.025634765625,800.6226806640625,788.5347900390625,661.6116943359375
2023-10-11 15:58:34.161610,796.5933837890625,800.6226806640625,799.4139404296875,790.1465454101562,849.7802124023438
2023-10-11 15:58:34.163017,804.2490844726562,803.040283203125,798.6080322265625,794.1758422851562,957.3626098632812
2023-10-11 15:58:34.164360,795.3846435546875,804.6520385742188,803.040283203125,796.996337890625,792.1611938476562
2023-10-11 15:58:34.165331,786.923095703125,800.6226806640625,803.8461303710938,795.7875366210938,712.7838745117188
2023-10-11 15:58:34.166263,798.6080322265625,798.6080322265625,807.87548828125,801.025634765625,954.5421142578125
2023-10-11 15:58:34.169203,808.2783813476562,796.996337890625,806.6666870117188,810.2930297851562,919.084228515625
2023-10-11 15:58:34.171118,809.084228515625,796.996337890625,803.040283203125,810.2930297851562,820.3662719726562
2023-10-11 15:58:34.201768,805.8607788085938,796.1904907226562,805.8607788085938,807.87548828125,894.5054931640625
2023-10-11 15:58:34.203108,805.8607788085938,798.6080322265625,807.87548828125,803.8461303710938,774.8351440429688
2023-10-11 15:58:34.205413,806.6666870117188,798.6080322265625,805.054931640625,807.87548828125,659.1941528320312
2023-10-11 15:58:34.207586,805.8607788085938,798.2051391601562,803.4432373046875,805.054931640625,745.018310546875
2023-10-11 15:58:34.211376,813.113525390625,799.4139404296875,801.4285888671875,807.069580078125,865.4945068359375
2023-10-11 15:58:34.213371,810.2930297851562,799.4139404296875,803.4432373046875,813.5164794921875,863.4798583984375
2023-10-11 15:58:34.217211,796.996337890625,795.7875366210938,803.4432373046875,798.6080322265625,726.08056640625
2023-10-11 15:58:34.218934,806.6666870117188,799.010986328125,801.4285888671875,804.6520385742188,660.4029541015625
2023-10-11 15:58:34.220467,824.3956298828125,801.4285888671875,800.6226806640625,822.3809814453125,904.1758422851562
2023-10-11 15:58:34.222249,813.5164794921875,797.3992919921875,798.6080322265625,819.96337890625,1021.4285888671875
2023-10-11 15:58:34.224097,800.2197875976562,796.1904907226562,794.1758422851562,811.90478515625,813.5164794921875
2023-10-11 15:58:34.225804,806.2637329101562,795.7875366210938,793.7728881835938,809.4871826171875,685.7875366210938
2023-10-11 15:58:34.235245,809.4871826171875,796.996337890625,797.3992919921875,813.91943359375,669.2673950195312
2023-10-11 15:58:34.236706,810.2930297851562,797.8021850585938,799.4139404296875,812.7106323242188,736.959716796875
2023-10-11 15:58:34.238148,810.2930297851562,798.2051391601562,799.4139404296875,809.4871826171875,826.8131713867188
2023-10-11 15:58:34.239616,801.4285888671875,799.8168334960938,803.4432373046875,804.6520385742188,905.3846435546875
2023-10-11 15:58:34.241368,792.967041015625,798.2051391601562,803.4432373046875,806.2637329101562,894.908447265625
2023-10-11 15:58:34.244266,801.025634765625,802.2344360351562,806.2637329101562,811.098876953125,806.2637329101562
2023-10-11 15:58:34.245564,809.084228515625,802.6373901367188,803.4432373046875,811.098876953125,846.1538696289062
2023-10-11 15:58:34.253896,811.90478515625,802.2344360351562,801.025634765625,813.91943359375,923.113525390625
2023-10-11 15:58:34.255105,806.6666870117188,805.4578857421875,803.4432373046875,816.3369750976562,1032.3077392578125
2023-10-11 15:58:34.256688,795.3846435546875,801.8314819335938,800.2197875976562,806.6666870117188,803.4432373046875
2023-10-11 15:58:34.257668,801.4285888671875,801.025634765625,797.8021850585938,800.2197875976562,589.4871826171875
2023-10-11 15:58:34.258816,811.098876953125,802.6373901367188,802.6373901367188,809.89013671875,705.5311279296875
2023-10-11 15:58:34.269918,809.89013671875,804.2490844726562,802.6373901367188,799.010986328125,818.7545776367188
2023-10-11 15:58:34.272573,800.2197875976562,805.4578857421875,801.025634765625,785.3113403320312,786.1171875
2023-10-11 15:58:34.274238,790.5494384765625,803.040283203125,800.2197875976562,790.952392578125,668.4615478515625
2023-10-11 15:58:34.276558,790.952392578125,799.4139404296875,796.996337890625,801.025634765625,653.9560546875
2023-10-11 15:58:34.279181,805.8607788085938,796.996337890625,798.2051391601562,816.7399291992188,733.7362670898438
2023-10-11 15:58:34.280518,817.5457763671875,799.4139404296875,801.4285888671875,823.5897216796875,857.8388061523438
2023-10-11 15:58:34.282621,804.6520385742188,801.8314819335938,796.5933837890625,811.5018310546875,911.8314819335938
2023-10-11 15:58:34.284128,789.7435913085938,802.2344360351562,797.8021850585938,807.4725341796875,973.4798583984375
2023-10-11 15:58:34.286600,793.7728881835938,801.8314819335938,799.4139404296875,803.8461303710938,939.2307739257812
2023-10-11 15:58:34.287991,804.2490844726562,800.6226806640625,797.8021850585938,802.2344360351562,722.05126953125
2023-10-11 15:58:34.289175,799.4139404296875,801.8314819335938,800.6226806640625,806.6666870117188,786.1171875
2023-10-11 15:58:34.290206,786.1171875,804.2490844726562,803.4432373046875,798.6080322265625,950.915771484375
2023-10-11 15:58:34.381900,777.6557006835938,803.4432373046875,801.4285888671875,782.4908447265625,798.6080322265625
2023-10-11 15:58:34.383103,775.6410522460938,798.6080322265625,801.4285888671875,786.5201416015625,623.7362670898438
2023-10-11 15:58:34.384204,785.7142944335938,795.7875366210938,803.4432373046875,803.040283203125,694.6520385742188
2023-10-11 15:58:34.385275,799.4139404296875,794.981689453125,801.8314819335938,800.6226806640625,855.018310546875
2023-10-11 15:58:34.386310,793.7728881835938,798.2051391601562,799.8168334960938,792.1611938476562,911.4285888671875
2023-10-11 15:58:34.387300,785.3113403320312,801.4285888671875,799.4139404296875,784.1025390625,823.99267578125
2023-10-11 15:58:34.388393,788.937744140625,803.040283203125,801.025634765625,790.5494384765625,751.062255859375
2023-10-11 15:58:34.389481,790.1465454101562,807.069580078125,797.3992919921875,796.996337890625,870.3296508789062
2023-10-11 15:58:34.390612,787.7289428710938,803.4432373046875,791.3552856445312,790.952392578125,910.2197875976562
2023-10-11 15:58:34.399612,792.967041015625,802.2344360351562,791.7582397460938,787.7289428710938,874.3589477539062
2023-10-11 15:58:34.401867,796.1904907226562,804.6520385742188,794.5787353515625,786.1171875,836.4835205078125
2023-10-11 15:58:34.403667,790.1465454101562,804.2490844726562,795.3846435546875,786.1171875,752.2710571289062
2023-10-11 15:58:34.413222,796.996337890625,801.4285888671875,796.1904907226562,789.3406372070312,666.8497924804688
2023-10-11 15:58:34.414775,809.084228515625,802.6373901367188,799.010986328125,798.6080322265625,774.029296875
2023-10-11 15:58:34.416335,805.054931640625,801.4285888671875,804.6520385742188,801.025634765625,906.5933837890625
2023-10-11 15:58:34.418118,799.010986328125,799.4139404296875,806.6666870117188,797.8021850585938,819.96337890625
2023-10-11 15:58:34.423027,795.7875366210938,799.8168334960938,805.4578857421875,796.996337890625,697.87548828125
2023-10-11 15:58:34.425829,801.025634765625,796.1904907226562,801.4285888671875,803.4432373046875,726.08056640625
2023-10-11 15:58:34.427659,806.6666870117188,798.6080322265625,795.7875366210938,807.87548828125,958.5714111328125
2023-10-11 15:58:34.428702,797.8021850585938,797.8021850585938,793.7728881835938,806.6666870117188,1102.4176025390625
2023-10-11 15:58:34.430789,784.908447265625,792.5640869140625,797.8021850585938,799.4139404296875,839.7069702148438
2023-10-11 15:58:34.431965,782.4908447265625,793.7728881835938,800.6226806640625,787.7289428710938,657.9853515625
2023-10-11 15:58:34.433540,784.1025390625,794.5787353515625,796.5933837890625,787.3259887695312,695.4578857421875
2023-10-11 15:58:34.435392,787.7289428710938,797.3992919921875,793.7728881835938,791.7582397460938,810.2930297851562
2023-10-11 15:58:34.443547,790.5494384765625,801.025634765625,797.3992919921875,788.1318969726562,840.5128173828125
2023-10-11 15:58:34.445136,784.908447265625,798.6080322265625,797.8021850585938,786.5201416015625,792.1611938476562
2023-10-11 15:58:34.446668,783.6996459960938,800.6226806640625,802.2344360351562,797.8021850585938,790.1465454101562
2023-10-11 15:58:34.448232,788.1318969726562,804.6520385742188,801.8314819335938,798.6080322265625,696.6666870117188
2023-10-11 15:58:34.450929,788.937744140625,801.8314819335938,792.967041015625,794.1758422851562,681.3552856445312
