Timestamp,TP9,AF7,AF8,TP10
2023-10-11 15:48:51.487200,791.3552856445312,810.6959838867188,803.040283203125,787.3259887695312,826.4102783203125
2023-10-11 15:48:51.489591,794.5787353515625,809.4871826171875,802.2344360351562,799.4139404296875,922.3076782226562
2023-10-11 15:48:51.497889,786.1171875,809.4871826171875,807.87548828125,782.087890625,567.3259887695312
2023-10-11 15:48:51.504184,793.7728881835938,811.098876953125,803.4432373046875,799.4139404296875,774.4322509765625
2023-10-11 15:48:51.505508,780.0732421875,811.098876953125,800.2197875976562,796.1904907226562,635.018310546875
2023-10-11 15:48:51.507662,774.029296875,807.4725341796875,798.6080322265625,797.3992919921875,778.8644409179688
2023-10-11 15:48:51.508740,787.3259887695312,804.2490844726562,796.5933837890625,791.3552856445312,983.9560546875
2023-10-11 15:48:51.510245,793.7728881835938,805.8607788085938,794.5787353515625,784.1025390625,966.2271118164062
2023-10-11 15:48:51.511300,786.5201416015625,802.6373901367188,795.7875366210938,782.4908447265625,828.02197265625
2023-10-11 15:48:51.512398,779.2673950195312,799.010986328125,794.5787353515625,778.4615478515625,859.8534545898438
2023-10-11 15:48:51.513825,774.8351440429688,801.8314819335938,792.5640869140625,778.4615478515625,753.4798583984375
2023-10-11 15:48:51.514929,787.3259887695312,799.8168334960938,796.5933837890625,798.6080322265625,725.2747192382812
2023-10-11 15:48:51.522895,803.4432373046875,794.981689453125,798.6080322265625,802.2344360351562,923.91943359375
2023-10-11 15:48:51.525202,788.1318969726562,796.1904907226562,797.3992919921875,791.7582397460938,867.106201171875
2023-10-11 15:48:51.526610,768.7911987304688,798.2051391601562,794.981689453125,784.5054931640625,608.02197265625
2023-10-11 15:48:51.528524,771.2088012695312,802.2344360351562,792.5640869140625,774.029296875,529.8534545898438
2023-10-11 15:48:51.530810,782.087890625,804.6520385742188,796.996337890625,787.7289428710938,724.8717651367188
2023-10-11 15:48:51.534218,786.1171875,802.6373901367188,799.010986328125,790.952392578125,933.5897216796875
2023-10-11 15:48:51.536568,781.2820434570312,804.6520385742188,794.5787353515625,773.2234497070312,888.4615478515625
2023-10-11 15:48:51.537987,785.7142944335938,807.87548828125,799.8168334960938,780.4761962890625,606.00732421875
2023-10-11 15:48:51.540159,788.937744140625,805.054931640625,804.2490844726562,802.2344360351562,652.7472534179688
2023-10-11 15:48:51.541160,785.7142944335938,803.8461303710938,803.4432373046875,811.098876953125,954.945068359375
2023-10-11 15:48:51.542733,786.923095703125,801.8314819335938,801.8314819335938,795.3846435546875,948.901123046875
2023-10-11 15:48:51.544278,790.5494384765625,797.3992919921875,799.4139404296875,784.908447265625,900.5494384765625
2023-10-11 15:48:51.584024,788.1318969726562,802.2344360351562,802.6373901367188,786.1171875,847.3626098632812
2023-10-11 15:48:51.585559,777.2527465820312,806.6666870117188,805.8607788085938,797.3992919921875,666.8497924804688
2023-10-11 15:48:51.586882,782.087890625,805.054931640625,799.4139404296875,808.2783813476562,686.5933837890625
2023-10-11 15:48:51.587871,799.4139404296875,803.040283203125,798.2051391601562,807.87548828125,890.4761962890625
2023-10-11 15:48:51.588766,789.7435913085938,801.4285888671875,801.4285888671875,798.2051391601562,912.6373901367188
2023-10-11 15:48:51.596689,770.4029541015625,801.8314819335938,799.8168334960938,790.1465454101562,742.6007080078125
2023-10-11 15:48:51.598215,764.7619018554688,804.6520385742188,798.2051391601562,779.6703491210938,663.2234497070312
2023-10-11 15:48:51.599447,768.7911987304688,803.8461303710938,796.996337890625,780.4761962890625,719.6337280273438
2023-10-11 15:48:51.601142,795.3846435546875,805.4578857421875,797.8021850585938,783.6996459960938,1024.2490234375
2023-10-11 15:48:51.604464,796.5933837890625,810.2930297851562,798.2051391601562,785.7142944335938,1045.201416015625
2023-10-11 15:48:51.605668,779.6703491210938,809.084228515625,799.4139404296875,770.4029541015625,679.3406372070312
2023-10-11 15:48:51.607139,782.087890625,805.4578857421875,794.5787353515625,757.912109375,587.4725341796875
2023-10-11 15:48:51.616720,791.3552856445312,807.87548828125,790.952392578125,771.2088012695312,712.3809814453125
2023-10-11 15:48:51.618068,807.4725341796875,806.2637329101562,797.3992919921875,789.3406372070312,830.03662109375
2023-10-11 15:48:51.619466,815.5311279296875,806.2637329101562,800.6226806640625,779.6703491210938,901.3552856445312
2023-10-11 15:48:51.621425,794.1758422851562,805.8607788085938,799.4139404296875,785.7142944335938,882.0146484375
2023-10-11 15:48:51.622913,775.6410522460938,800.6226806640625,796.996337890625,773.2234497070312,718.4249267578125
2023-10-11 15:48:51.624921,777.6557006835938,803.040283203125,795.7875366210938,743.8095092773438,703.91943359375
2023-10-11 15:48:51.626520,780.879150390625,806.6666870117188,801.4285888671875,783.2966918945312,895.3113403320312
2023-10-11 15:48:51.629065,778.05859375,807.069580078125,806.6666870117188,799.010986328125,1043.5897216796875
2023-10-11 15:48:51.632181,762.7472534179688,806.6666870117188,805.4578857421875,802.6373901367188,973.8828125
2023-10-11 15:48:51.633578,756.7033081054688,802.6373901367188,804.6520385742188,791.7582397460938,643.8828125
2023-10-11 15:48:51.634980,760.7326049804688,803.8461303710938,799.8168334960938,775.2380981445312,611.2454223632812
2023-10-11 15:48:51.636798,784.1025390625,804.2490844726562,799.8168334960938,813.5164794921875,852.1978149414062
2023-10-11 15:48:51.650589,786.5201416015625,803.040283203125,805.054931640625,821.1721801757812,925.5311279296875
2023-10-11 15:48:51.651963,769.5970458984375,803.4432373046875,804.2490844726562,784.1025390625,783.2966918945312
2023-10-11 15:48:51.653250,761.1355590820312,799.010986328125,801.4285888671875,769.1941528320312,624.1392211914062
2023-10-11 15:48:51.654529,759.9267578125,798.2051391601562,805.054931640625,789.3406372070312,605.6043701171875
2023-10-11 15:48:51.656072,771.6116943359375,796.5933837890625,810.6959838867188,810.6959838867188,782.4908447265625
2023-10-11 15:48:51.657736,790.1465454101562,793.7728881835938,809.084228515625,802.2344360351562,950.10986328125
2023-10-11 15:48:51.658773,780.4761962890625,796.5933837890625,805.8607788085938,789.3406372070312,873.1502075195312
2023-10-11 15:48:51.666079,754.6886596679688,790.1465454101562,807.069580078125,778.4615478515625,869.5238037109375
2023-10-11 15:48:51.667594,755.4945068359375,790.952392578125,810.6959838867188,793.3699340820312,796.996337890625
2023-10-11 15:48:51.672570,775.6410522460938,795.3846435546875,808.6813354492188,810.6959838867188,717.2161254882812
2023-10-11 15:48:51.674361,785.3113403320312,790.952392578125,804.6520385742188,796.1904907226562,910.2197875976562
2023-10-11 15:48:51.675881,762.7472534179688,788.937744140625,801.8314819335938,775.6410522460938,912.2344360351562
2023-10-11 15:48:51.717747,761.94140625,792.1611938476562,800.6226806640625,781.6849975585938,635.4212646484375
2023-10-11 15:48:51.719170,776.4468994140625,796.996337890625,798.6080322265625,787.3259887695312,539.5238037109375
2023-10-11 15:48:51.720790,784.908447265625,799.8168334960938,803.4432373046875,794.1758422851562,765.5677490234375
2023-10-11 15:48:51.722478,786.923095703125,801.025634765625,808.6813354492188,819.5604248046875,924.3223266601562
2023-10-11 15:48:51.723816,778.8644409179688,802.6373901367188,807.4725341796875,810.6959838867188,838.901123046875
2023-10-11 15:48:51.725256,781.2820434570312,806.6666870117188,806.6666870117188,800.2197875976562,712.7838745117188
2023-10-11 15:48:51.727403,791.3552856445312,809.4871826171875,808.6813354492188,800.2197875976562,749.8534545898438
2023-10-11 15:48:51.728491,802.2344360351562,804.2490844726562,804.2490844726562,794.1758422851562,929.1575317382812
2023-10-11 15:48:51.731461,799.010986328125,800.6226806640625,805.054931640625,802.6373901367188,972.2710571289062
2023-10-11 15:48:51.732856,791.7582397460938,798.6080322265625,812.7106323242188,814.3223266601562,822.7838745117188
2023-10-11 15:48:51.734025,784.1025390625,798.2051391601562,809.4871826171875,807.87548828125,725.6776733398438
2023-10-11 15:48:51.736425,782.087890625,800.2197875976562,804.2490844726562,805.054931640625,666.0439453125
2023-10-11 15:48:51.755445,786.923095703125,799.4139404296875,802.6373901367188,809.084228515625,678.937744140625
2023-10-11 15:48:51.756819,803.8461303710938,806.2637329101562,802.2344360351562,818.3516235351562,852.6007080078125
2023-10-11 15:48:51.757897,801.025634765625,807.069580078125,796.996337890625,798.6080322265625,867.5091552734375
2023-10-11 15:48:51.758894,790.1465454101562,800.6226806640625,797.3992919921875,781.2820434570312,668.8644409179688
2023-10-11 15:48:51.759848,786.1171875,799.010986328125,805.4578857421875,797.3992919921875,558.05859375
2023-10-11 15:48:51.760838,786.923095703125,798.2051391601562,810.2930297851562,805.054931640625,720.03662109375
2023-10-11 15:48:51.761879,811.5018310546875,797.3992919921875,810.6959838867188,790.5494384765625,1088.7178955078125
2023-10-11 15:48:51.764227,812.7106323242188,800.2197875976562,811.098876953125,788.937744140625,1023.8461303710938
2023-10-11 15:48:51.765415,791.7582397460938,804.6520385742188,813.5164794921875,814.3223266601562,650.3296508789062
2023-10-11 15:48:51.771526,774.029296875,805.8607788085938,810.6959838867188,814.7252807617188,583.8461303710938
2023-10-11 15:48:51.772978,778.4615478515625,802.2344360351562,803.040283203125,796.996337890625,723.2600708007812
2023-10-11 15:48:51.774353,807.069580078125,806.2637329101562,802.6373901367188,811.098876953125,876.3735961914062
2023-10-11 15:48:51.817863,819.96337890625,807.4725341796875,804.6520385742188,828.8278198242188,842.12451171875
2023-10-11 15:48:51.819293,794.981689453125,803.8461303710938,800.2197875976562,804.2490844726562,736.5567626953125
2023-10-11 15:48:51.820626,778.4615478515625,806.6666870117188,795.3846435546875,789.7435913085938,659.5970458984375
2023-10-11 15:48:51.821541,785.7142944335938,801.8314819335938,794.981689453125,792.5640869140625,643.076904296875
2023-10-11 15:48:51.822408,805.8607788085938,803.040283203125,795.3846435546875,797.3992919921875,813.113525390625
2023-10-11 15:48:51.823357,807.87548828125,808.2783813476562,796.1904907226562,811.098876953125,1099.194091796875
2023-10-11 15:48:51.824194,794.1758422851562,805.054931640625,797.8021850585938,816.3369750976562,1081.8681640625
2023-10-11 15:48:51.825002,788.1318969726562,807.069580078125,799.010986328125,804.6520385742188,670.4761962890625
2023-10-11 15:48:51.826106,790.5494384765625,803.4432373046875,800.6226806640625,801.025634765625,566.923095703125
2023-10-11 15:48:51.827267,806.6666870117188,802.2344360351562,804.6520385742188,807.4725341796875,909.8168334960938
2023-10-11 15:48:51.828349,800.6226806640625,806.6666870117188,806.6666870117188,811.5018310546875,1066.959716796875
2023-10-11 15:48:51.829309,778.8644409179688,803.8461303710938,803.040283203125,797.3992919921875,786.5201416015625
2023-10-11 15:48:51.884593,775.6410522460938,804.2490844726562,804.2490844726562,776.8497924804688,578.6080322265625
2023-10-11 15:48:51.886005,793.3699340820312,809.084228515625,802.2344360351562,774.4322509765625,653.5531005859375
2023-10-11 15:48:51.887351,807.87548828125,808.6813354492188,799.010986328125,808.6813354492188,857.4359130859375
2023-10-11 15:48:51.888473,800.2197875976562,807.87548828125,801.8314819335938,820.3662719726562,925.5311279296875
2023-10-11 15:48:51.889572,784.1025390625,807.069580078125,797.8021850585938,793.3699340820312,803.040283203125
2023-10-11 15:48:51.890682,787.7289428710938,805.8607788085938,796.996337890625,788.937744140625,896.1171875
2023-10-11 15:48:51.891919,794.5787353515625,807.069580078125,801.025634765625,798.2051391601562,917.069580078125
2023-10-11 15:48:51.893000,805.4578857421875,808.6813354492188,798.6080322265625,806.6666870117188,772.4176025390625
2023-10-11 15:48:51.894187,820.3662719726562,807.4725341796875,800.2197875976562,813.91943359375,886.4468994140625
2023-10-11 15:48:51.896465,804.2490844726562,808.2783813476562,802.6373901367188,824.7985229492188,885.2380981445312
2023-10-11 15:48:51.898064,796.5933837890625,813.91943359375,799.8168334960938,812.7106323242188,655.1648559570312
2023-10-11 15:48:51.913551,805.054931640625,812.3076782226562,802.6373901367188,799.4139404296875,582.2344360351562
2023-10-11 15:48:51.923384,805.4578857421875,812.3076782226562,801.8314819335938,802.2344360351562,782.893798828125
2023-10-11 15:48:51.924880,813.113525390625,815.5311279296875,799.010986328125,815.93408203125,964.6153564453125
2023-10-11 15:48:51.925830,806.6666870117188,807.4725341796875,797.8021850585938,813.91943359375,860.6593627929688
2023-10-11 15:48:51.926667,784.908447265625,804.6520385742188,796.1904907226562,803.040283203125,635.018310546875
2023-10-11 15:48:51.927467,788.1318969726562,806.6666870117188,800.6226806640625,804.2490844726562,687.3992919921875
2023-10-11 15:48:51.928429,805.054931640625,809.89013671875,804.2490844726562,802.6373901367188,833.2600708007812
2023-10-11 15:48:51.930212,813.5164794921875,809.4871826171875,805.4578857421875,807.4725341796875,938.02197265625
2023-10-11 15:48:51.931724,795.3846435546875,809.4871826171875,803.040283203125,797.3992919921875,895.3113403320312
2023-10-11 15:48:51.932970,779.2673950195312,807.4725341796875,806.6666870117188,766.7765502929688,780.0732421875
2023-10-11 15:48:51.934543,785.3113403320312,802.6373901367188,805.4578857421875,770.0,793.7728881835938
2023-10-11 15:48:51.935953,801.8314819335938,806.6666870117188,800.6226806640625,809.89013671875,716.00732421875
2023-10-11 15:48:51.937264,811.5018310546875,806.6666870117188,803.040283203125,814.3223266601562,856.2271118164062
2023-10-11 15:48:51.950757,798.2051391601562,805.4578857421875,802.2344360351562,809.4871826171875,953.7362670898438
2023-10-11 15:48:51.953205,788.937744140625,805.4578857421875,803.8461303710938,816.7399291992188,747.4359130859375
2023-10-11 15:48:51.955089,796.5933837890625,805.4578857421875,802.2344360351562,809.89013671875,597.94873046875
2023-10-11 15:48:51.956738,801.025634765625,806.2637329101562,802.6373901367188,801.025634765625,701.098876953125
2023-10-11 15:48:51.958859,805.8607788085938,805.8607788085938,801.4285888671875,791.3552856445312,905.7875366210938
2023-10-11 15:48:51.960949,803.4432373046875,801.4285888671875,799.010986328125,801.4285888671875,1006.5201416015625
2023-10-11 15:48:51.962686,792.967041015625,800.2197875976562,804.2490844726562,814.7252807617188,835.6776733398438
2023-10-11 15:48:51.964185,785.7142944335938,803.4432373046875,802.6373901367188,805.054931640625,684.5787353515625
2023-10-11 15:48:51.966823,782.4908447265625,802.6373901367188,799.8168334960938,801.025634765625,922.3076782226562
2023-10-11 15:48:51.971214,795.7875366210938,807.4725341796875,799.4139404296875,807.87548828125,1043.99267578125
2023-10-11 15:48:51.973138,802.6373901367188,807.4725341796875,795.3846435546875,807.87548828125,855.8241577148438
2023-10-11 15:48:51.976518,784.5054931640625,798.2051391601562,792.5640869140625,794.1758422851562,740.1831665039062
2023-10-11 15:48:51.990297,774.029296875,795.7875366210938,793.3699340820312,783.6996459960938,681.3552856445312
2023-10-11 15:48:51.999536,787.3259887695312,796.996337890625,795.3846435546875,785.3113403320312,640.2564086914062
2023-10-11 15:48:52.000934,795.7875366210938,795.3846435546875,799.010986328125,797.8021850585938,778.05859375
2023-10-11 15:48:52.002529,796.5933837890625,795.3846435546875,797.8021850585938,794.1758422851562,886.4468994140625
2023-10-11 15:48:52.004356,786.923095703125,798.6080322265625,797.8021850585938,803.4432373046875,771.2088012695312
2023-10-11 15:48:52.005385,776.4468994140625,797.3992919921875,797.8021850585938,807.87548828125,639.8534545898438
2023-10-11 15:48:52.006843,789.3406372070312,795.3846435546875,794.1758422851562,794.5787353515625,692.6373901367188
2023-10-11 15:48:52.009462,800.6226806640625,801.025634765625,789.3406372070312,798.6080322265625,891.6849975585938
2023-10-11 15:48:52.010720,801.4285888671875,802.6373901367188,790.1465454101562,801.4285888671875,929.5604248046875
2023-10-11 15:48:52.014379,797.3992919921875,796.1904907226562,795.3846435546875,796.1904907226562,767.9853515625
2023-10-11 15:48:52.016987,790.952392578125,794.1758422851562,798.2051391601562,797.8021850585938,601.1721801757812
2023-10-11 15:48:52.018284,794.981689453125,798.2051391601562,799.4139404296875,813.5164794921875,715.6043701171875
2023-10-11 15:48:52.051691,803.4432373046875,796.996337890625,799.4139404296875,821.5750732421875,980.7326049804688
2023-10-11 15:48:52.053000,807.87548828125,792.967041015625,795.3846435546875,811.5018310546875,919.084228515625
2023-10-11 15:48:52.054259,805.054931640625,788.937744140625,793.7728881835938,803.8461303710938,803.4432373046875
2023-10-11 15:48:52.055449,790.952392578125,792.5640869140625,796.1904907226562,793.3699340820312,776.4468994140625
2023-10-11 15:48:52.056754,790.1465454101562,797.8021850585938,796.1904907226562,800.6226806640625,749.4505615234375
2023-10-11 15:48:52.058296,805.054931640625,796.996337890625,793.7728881835938,813.5164794921875,863.8828125
2023-10-11 15:48:52.059554,819.5604248046875,800.2197875976562,792.5640869140625,809.4871826171875,1025.4578857421875
2023-10-11 15:48:52.061035,813.113525390625,801.4285888671875,799.010986328125,811.5018310546875,1052.4542236328125
2023-10-11 15:48:52.062361,794.981689453125,805.054931640625,797.3992919921875,806.2637329101562,800.6226806640625
2023-10-11 15:48:52.063637,796.1904907226562,804.2490844726562,791.3552856445312,803.040283203125,545.5677490234375
2023-10-11 15:48:52.065975,816.3369750976562,800.2197875976562,794.5787353515625,814.3223266601562,742.1978149414062
2023-10-11 15:48:52.067123,828.02197265625,800.2197875976562,796.1904907226562,819.5604248046875,939.2307739257812
2023-10-11 15:48:52.094183,817.1428833007812,803.8461303710938,797.3992919921875,818.3516235351562,862.6740112304688
2023-10-11 15:48:52.095588,802.6373901367188,803.4432373046875,803.4432373046875,826.00732421875,665.2380981445312
2023-10-11 15:48:52.096725,819.5604248046875,799.010986328125,806.2637329101562,834.06591796875,654.3589477539062
2023-10-11 15:48:52.108265,836.886474609375,802.6373901367188,798.6080322265625,832.05126953125,835.6776733398438
2023-10-11 15:48:52.110213,820.7692260742188,807.4725341796875,789.3406372070312,817.5457763671875,913.4432373046875
2023-10-11 15:48:52.111594,810.2930297851562,809.4871826171875,789.7435913085938,802.6373901367188,846.5567626953125
2023-10-11 15:48:52.115247,791.7582397460938,810.2930297851562,788.1318969726562,786.1171875,849.3773193359375
2023-10-11 15:48:52.117516,782.4908447265625,811.098876953125,784.1025390625,776.8497924804688,837.6923217773438
2023-10-11 15:48:52.120448,798.6080322265625,813.113525390625,786.1171875,793.3699340820312,703.113525390625
2023-10-11 15:48:52.123156,811.5018310546875,813.91943359375,786.5201416015625,795.7875366210938,842.12451171875
2023-10-11 15:48:52.125174,800.2197875976562,811.90478515625,781.6849975585938,786.1171875,896.1171875
2023-10-11 15:48:52.126900,782.893798828125,813.113525390625,780.0732421875,784.908447265625,714.7985229492188
2023-10-11 15:48:52.152103,789.7435913085938,819.5604248046875,780.4761962890625,780.879150390625,555.2380981445312
2023-10-11 15:48:52.154068,803.040283203125,818.7545776367188,783.2966918945312,788.1318969726562,644.2857055664062
2023-10-11 15:48:52.155664,812.7106323242188,812.7106323242188,785.7142944335938,801.4285888671875,866.7033081054688
2023-10-11 15:48:52.157296,809.4871826171875,810.6959838867188,783.2966918945312,800.6226806640625,916.6666870117188
2023-10-11 15:48:52.159210,798.2051391601562,812.3076782226562,781.2820434570312,786.923095703125,750.2564086914062
2023-10-11 15:48:52.160972,793.3699340820312,817.94873046875,782.4908447265625,789.7435913085938,614.06591796875
2023-10-11 15:48:52.162898,805.4578857421875,821.1721801757812,782.893798828125,794.5787353515625,882.4176025390625
2023-10-11 15:48:52.165125,830.03662109375,818.7545776367188,784.1025390625,795.7875366210938,1045.6043701171875
2023-10-11 15:48:52.166889,829.2307739257812,812.7106323242188,782.893798828125,797.8021850585938,855.4212646484375
2023-10-11 15:48:52.168366,807.4725341796875,807.4725341796875,778.4615478515625,795.3846435546875,705.5311279296875
2023-10-11 15:48:52.170659,802.6373901367188,805.4578857421875,784.1025390625,804.2490844726562,632.1978149414062
2023-10-11 15:48:52.173280,815.93408203125,811.098876953125,792.967041015625,805.4578857421875,629.3773193359375
2023-10-11 15:48:52.193197,832.8571166992188,815.5311279296875,790.952392578125,809.4871826171875,738.5714111328125
2023-10-11 15:48:52.194804,832.4542236328125,815.5311279296875,787.7289428710938,810.2930297851562,869.5238037109375
2023-10-11 15:48:52.196718,825.2014770507812,813.91943359375,789.7435913085938,802.2344360351562,766.3735961914062
2023-10-11 15:48:52.198232,822.7838745117188,806.6666870117188,790.1465454101562,807.87548828125,576.5933837890625
2023-10-11 15:48:52.199360,831.6483764648438,801.8314819335938,787.7289428710938,810.6959838867188,614.06591796875
2023-10-11 15:48:52.208833,844.5421142578125,801.025634765625,783.2966918945312,809.89013671875,968.2417602539062
2023-10-11 15:48:52.210058,844.1392211914062,802.2344360351562,783.6996459960938,810.2930297851562,1141.90478515625
2023-10-11 15:48:52.211465,833.2600708007812,806.2637329101562,786.5201416015625,805.8607788085938,897.7289428710938
2023-10-11 15:48:52.215906,814.7252807617188,807.4725341796875,788.937744140625,805.054931640625,643.076904296875
2023-10-11 15:48:52.217121,793.3699340820312,803.040283203125,789.7435913085938,822.7838745117188,733.3333129882812
2023-10-11 15:48:52.218637,790.1465454101562,805.8607788085938,790.5494384765625,834.8717651367188,972.6740112304688
2023-10-11 15:48:52.220172,797.3992919921875,802.6373901367188,789.7435913085938,823.99267578125,896.923095703125
2023-10-11 15:48:52.234548,789.3406372070312,796.1904907226562,791.7582397460938,821.97802734375,773.6264038085938
2023-10-11 15:48:52.238080,775.2380981445312,794.981689453125,794.5787353515625,826.00732421875,644.2857055664062
2023-10-11 15:48:52.240362,783.6996459960938,794.981689453125,796.5933837890625,827.2161254882812,641.4652099609375
2023-10-11 15:48:52.243468,800.6226806640625,800.2197875976562,799.8168334960938,830.8424682617188,763.9560546875
2023-10-11 15:48:52.245260,809.4871826171875,797.3992919921875,799.4139404296875,832.05126953125,906.996337890625
2023-10-11 15:48:52.246928,799.4139404296875,790.952392578125,794.5787353515625,822.3809814453125,954.945068359375
2023-10-11 15:48:52.248470,784.1025390625,794.1758422851562,793.3699340820312,810.2930297851562,738.1685180664062
2023-10-11 15:48:52.250140,782.4908447265625,792.5640869140625,795.7875366210938,813.91943359375,582.6373901367188
2023-10-11 15:48:52.251603,797.3992919921875,791.3552856445312,794.1758422851562,820.3662719726562,721.2454223632812
2023-10-11 15:48:52.253195,808.6813354492188,793.3699340820312,795.3846435546875,824.3956298828125,1118.1318359375
2023-10-11 15:48:52.254810,797.3992919921875,788.1318969726562,794.981689453125,810.2930297851562,1036.3370361328125
2023-10-11 15:48:52.257058,786.5201416015625,787.3259887695312,792.967041015625,792.967041015625,608.4249267578125
2023-10-11 15:48:52.284583,790.952392578125,791.7582397460938,798.2051391601562,797.8021850585938,620.10986328125
2023-10-11 15:48:52.286507,800.6226806640625,794.981689453125,799.010986328125,801.025634765625,788.937744140625
2023-10-11 15:48:52.288321,815.1282348632812,797.8021850585938,794.5787353515625,805.054931640625,863.8828125
2023-10-11 15:48:52.290216,821.97802734375,797.3992919921875,797.8021850585938,808.6813354492188,829.6337280273438
2023-10-11 15:48:52.292189,806.2637329101562,790.1465454101562,797.3992919921875,796.996337890625,713.99267578125
2023-10-11 15:48:52.293692,797.3992919921875,788.1318969726562,795.7875366210938,792.5640869140625,676.923095703125
2023-10-11 15:48:52.295070,805.4578857421875,788.937744140625,792.967041015625,798.6080322265625,762.7472534179688
2023-10-11 15:48:52.304224,814.7252807617188,785.7142944335938,789.3406372070312,805.8607788085938,855.018310546875
2023-10-11 15:48:52.305672,808.6813354492188,784.1025390625,793.7728881835938,811.098876953125,964.2124633789062
2023-10-11 15:48:52.306827,786.5201416015625,783.2966918945312,792.5640869140625,796.1904907226562,900.5494384765625
2023-10-11 15:48:52.308014,778.4615478515625,782.4908447265625,790.1465454101562,791.3552856445312,624.1392211914062
2023-10-11 15:48:52.309367,791.3552856445312,782.893798828125,790.952392578125,796.996337890625,677.3259887695312
2023-10-11 15:48:52.337884,800.2197875976562,778.4615478515625,788.1318969726562,796.1904907226562,939.2307739257812
2023-10-11 15:48:52.339805,797.3992919921875,775.2380981445312,788.5347900390625,799.010986328125,956.959716796875
2023-10-11 15:48:52.342278,790.5494384765625,777.2527465820312,792.1611938476562,788.937744140625,728.4981689453125
2023-10-11 15:48:52.344880,778.8644409179688,775.2380981445312,789.3406372070312,778.05859375,604.3956298828125
2023-10-11 15:48:52.346873,788.937744140625,773.6264038085938,788.5347900390625,789.7435913085938,704.7252807617188
2023-10-11 15:48:52.349550,809.084228515625,775.2380981445312,789.7435913085938,800.6226806640625,937.2161254882812
2023-10-11 15:48:52.353422,809.084228515625,779.2673950195312,789.3406372070312,795.7875366210938,1005.7142944335938
2023-10-11 15:48:52.355560,796.5933837890625,782.087890625,789.3406372070312,790.952392578125,766.3735961914062
2023-10-11 15:48:52.360819,787.7289428710938,782.087890625,789.3406372070312,801.025634765625,763.1502075195312
2023-10-11 15:48:52.363114,788.1318969726562,781.2820434570312,788.5347900390625,798.2051391601562,809.4871826171875
2023-10-11 15:48:52.366122,799.4139404296875,776.8497924804688,788.1318969726562,791.3552856445312,801.025634765625
2023-10-11 15:48:52.369028,800.2197875976562,772.0146484375,788.937744140625,794.981689453125,923.91943359375
2023-10-11 15:48:52.371002,782.4908447265625,770.4029541015625,790.952392578125,786.5201416015625,803.040283203125
2023-10-11 15:48:52.373533,772.4176025390625,772.8204956054688,794.5787353515625,784.1025390625,591.90478515625
2023-10-11 15:48:52.377790,780.0732421875,775.2380981445312,792.1611938476562,778.4615478515625,640.2564086914062
2023-10-11 15:48:52.383921,800.2197875976562,776.8497924804688,786.923095703125,779.6703491210938,938.8278198242188
2023-10-11 15:48:52.389642,807.4725341796875,776.4468994140625,789.3406372070312,796.5933837890625,1025.054931640625
2023-10-11 15:48:52.391062,791.7582397460938,774.4322509765625,793.3699340820312,800.2197875976562,839.7069702148438
2023-10-11 15:48:52.394580,779.6703491210938,774.4322509765625,792.967041015625,793.7728881835938,663.6264038085938
2023-10-11 15:48:52.396630,788.5347900390625,774.4322509765625,792.1611938476562,790.5494384765625,770.0
2023-10-11 15:48:52.397869,809.89013671875,779.2673950195312,790.5494384765625,798.6080322265625,1021.4285888671875
2023-10-11 15:48:52.407915,818.3516235351562,778.4615478515625,790.5494384765625,802.2344360351562,940.03662109375
2023-10-11 15:48:52.409620,801.025634765625,767.1795043945312,789.3406372070312,807.069580078125,760.7326049804688
2023-10-11 15:48:52.411208,781.2820434570312,763.9560546875,788.5347900390625,796.996337890625,637.4359130859375
2023-10-11 15:48:52.421488,786.5201416015625,765.970703125,790.5494384765625,787.7289428710938,621.7216186523438
2023-10-11 15:48:52.422700,809.084228515625,768.3883056640625,789.7435913085938,791.3552856445312,765.970703125
2023-10-11 15:48:52.424262,807.87548828125,767.1795043945312,788.937744140625,800.2197875976562,906.5933837890625
2023-10-11 15:48:52.426160,794.981689453125,772.0146484375,789.7435913085938,798.6080322265625,842.12451171875
2023-10-11 15:48:52.427333,787.3259887695312,775.2380981445312,784.5054931640625,787.3259887695312,662.0146484375
2023-10-11 15:48:52.428988,779.6703491210938,771.2088012695312,783.6996459960938,794.5787353515625,665.6410522460938
2023-10-11 15:48:52.430615,792.5640869140625,767.9853515625,786.1171875,807.069580078125,824.7985229492188
2023-10-11 15:48:52.432477,807.87548828125,766.7765502929688,790.1465454101562,815.1282348632812,1151.5750732421875
2023-10-11 15:48:52.433837,799.010986328125,767.1795043945312,793.3699340820312,814.3223266601562,1070.5860595703125
2023-10-11 15:48:52.435544,788.937744140625,766.7765502929688,795.7875366210938,810.6959838867188,626.5567626953125
2023-10-11 15:48:52.436790,793.7728881835938,764.3589477539062,798.6080322265625,808.2783813476562,597.5457763671875
2023-10-11 15:48:52.438543,803.8461303710938,763.5531005859375,797.3992919921875,815.93408203125,794.981689453125
2023-10-11 15:48:52.486469,807.4725341796875,767.9853515625,798.6080322265625,822.7838745117188,872.7472534179688
2023-10-11 15:48:52.487459,799.8168334960938,767.9853515625,795.3846435546875,817.94873046875,780.879150390625
2023-10-11 15:48:52.488397,790.1465454101562,766.3735961914062,795.3846435546875,797.8021850585938,684.1758422851562
2023-10-11 15:48:52.489546,789.3406372070312,773.6264038085938,797.8021850585938,800.2197875976562,645.4945068359375
2023-10-11 15:48:52.490984,797.8021850585938,772.4176025390625,790.1465454101562,815.1282348632812,680.1465454101562
2023-10-11 15:48:52.492799,809.084228515625,765.1648559570312,786.923095703125,810.2930297851562,905.7875366210938
2023-10-11 15:48:52.494877,807.069580078125,761.5384521484375,790.5494384765625,805.054931640625,1106.849853515625
2023-10-11 15:48:52.498310,788.937744140625,761.94140625,792.967041015625,799.8168334960938,942.8571166992188
2023-10-11 15:48:52.500467,779.6703491210938,764.7619018554688,792.1611938476562,796.5933837890625,690.2197875976562
2023-10-11 15:48:52.502487,792.1611938476562,765.5677490234375,796.1904907226562,799.4139404296875,705.5311279296875
2023-10-11 15:48:52.504304,801.4285888671875,764.3589477539062,795.7875366210938,811.5018310546875,956.1538696289062
2023-10-11 15:48:52.514025,796.5933837890625,764.7619018554688,791.3552856445312,800.2197875976562,998.05859375
2023-10-11 15:48:52.522957,776.4468994140625,761.94140625,791.3552856445312,785.3113403320312,705.93408203125
2023-10-11 15:48:52.524294,761.5384521484375,755.8974609375,790.1465454101562,794.1758422851562,585.054931640625
2023-10-11 15:48:52.525316,763.1502075195312,753.076904296875,791.3552856445312,798.6080322265625,661.6116943359375
2023-10-11 15:48:52.526280,777.2527465820312,754.6886596679688,790.952392578125,793.3699340820312,851.3919677734375
2023-10-11 15:48:52.527128,788.1318969726562,755.8974609375,788.1318969726562,784.5054931640625,867.5091552734375
2023-10-11 15:48:52.527982,776.0439453125,755.8974609375,790.1465454101562,787.7289428710938,753.4798583984375
2023-10-11 15:48:52.528986,767.1795043945312,758.3150024414062,787.7289428710938,786.923095703125,836.886474609375
2023-10-11 15:48:52.530490,770.8058471679688,761.5384521484375,784.908447265625,793.7728881835938,844.5421142578125
2023-10-11 15:48:52.531634,780.4761962890625,757.5091552734375,787.3259887695312,798.6080322265625,811.098876953125
2023-10-11 15:48:52.532615,790.952392578125,758.7179565429688,788.5347900390625,781.6849975585938,872.3442993164062
2023-10-11 15:48:52.533476,788.937744140625,761.94140625,785.7142944335938,772.8204956054688,772.8204956054688
2023-10-11 15:48:52.534544,778.8644409179688,765.970703125,782.087890625,781.2820434570312,646.3003540039062
2023-10-11 15:48:52.546737,785.3113403320312,772.0146484375,782.4908447265625,795.3846435546875,599.5604248046875
2023-10-11 15:48:52.547914,780.4761962890625,767.5823974609375,789.7435913085938,792.5640869140625,776.4468994140625
2023-10-11 15:48:52.549097,767.9853515625,761.94140625,787.3259887695312,776.0439453125,964.6153564453125
2023-10-11 15:48:52.550195,759.9267578125,757.106201171875,785.3113403320312,757.912109375,776.4468994140625
2023-10-11 15:48:52.551346,747.4359130859375,754.2857055664062,788.937744140625,751.8681030273438,554.8351440429688
2023-10-11 15:48:52.553707,751.8681030273438,751.062255859375,786.5201416015625,770.4029541015625,799.4139404296875
2023-10-11 15:48:52.555372,768.3883056640625,746.6300659179688,788.1318969726562,785.7142944335938,1090.7325439453125
2023-10-11 15:48:52.556532,766.7765502929688,743.8095092773438,794.1758422851562,782.4908447265625,958.974365234375
2023-10-11 15:48:52.557591,756.7033081054688,743.4066162109375,799.4139404296875,762.3442993164062,769.1941528320312
2023-10-11 15:48:52.558658,761.1355590820312,742.1978149414062,800.2197875976562,763.9560546875,683.7728881835938
2023-10-11 15:48:52.559763,771.2088012695312,742.6007080078125,805.054931640625,782.087890625,660.4029541015625
2023-10-11 15:48:52.560951,790.5494384765625,742.6007080078125,808.2783813476562,799.010986328125,736.5567626953125
2023-10-11 15:48:52.618270,796.5933837890625,734.945068359375,805.054931640625,801.8314819335938,883.6264038085938
2023-10-11 15:48:52.629165,786.923095703125,739.7802124023438,805.4578857421875,792.967041015625,867.106201171875
2023-10-11 15:48:52.631389,778.8644409179688,746.2271118164062,801.025634765625,784.1025390625,700.6959838867188
2023-10-11 15:48:52.633408,789.3406372070312,743.8095092773438,802.2344360351562,799.010986328125,581.025634765625
2023-10-11 15:48:52.637012,796.1904907226562,745.8241577148438,807.069580078125,831.2454223632812,734.5421142578125
2023-10-11 15:48:52.639353,800.6226806640625,743.4066162109375,806.2637329101562,831.2454223632812,1068.5714111328125
2023-10-11 15:48:52.641848,803.8461303710938,743.4066162109375,799.8168334960938,815.1282348632812,1009.3406372070312
2023-10-11 15:48:52.643435,788.5347900390625,745.018310546875,802.6373901367188,796.996337890625,630.5860595703125
2023-10-11 15:48:52.645538,785.7142944335938,747.4359130859375,802.6373901367188,802.6373901367188,570.5494384765625
2023-10-11 15:48:52.647325,803.4432373046875,748.2417602539062,798.2051391601562,825.6043701171875,815.5311279296875
2023-10-11 15:48:52.648882,810.2930297851562,745.018310546875,796.996337890625,819.96337890625,937.2161254882812
2023-10-11 15:48:52.650524,802.2344360351562,751.4652099609375,789.7435913085938,815.5311279296875,830.4395751953125
2023-10-11 15:48:52.651965,794.5787353515625,756.7033081054688,794.1758422851562,819.96337890625,697.069580078125
2023-10-11 15:48:52.653583,794.1758422851562,756.7033081054688,799.8168334960938,818.7545776367188,634.2124633789062
2023-10-11 15:48:52.655116,805.054931640625,757.912109375,801.025634765625,819.1575317382812,709.1575317382812
2023-10-11 15:48:52.657003,807.069580078125,756.3003540039062,801.4285888671875,807.069580078125,875.1648559570312
2023-10-11 15:48:52.658778,798.6080322265625,755.8974609375,794.981689453125,812.3076782226562,935.2014770507812
2023-10-11 15:48:52.660547,773.2234497070312,755.4945068359375,797.8021850585938,803.4432373046875,798.2051391601562
2023-10-11 15:48:52.662463,764.7619018554688,750.6593627929688,799.8168334960938,773.6264038085938,713.5897216796875
2023-10-11 15:48:52.664196,791.3552856445312,754.2857055664062,790.1465454101562,779.2673950195312,728.4981689453125
2023-10-11 15:48:52.665266,812.7106323242188,761.1355590820312,790.1465454101562,790.952392578125,960.1831665039062
2023-10-11 15:48:52.666402,799.010986328125,763.1502075195312,788.5347900390625,813.5164794921875,1133.84619140625
2023-10-11 15:48:52.668020,781.6849975585938,762.7472534179688,794.981689453125,813.91943359375,788.1318969726562
2023-10-11 15:48:52.669248,774.029296875,753.4798583984375,813.113525390625,748.6447143554688,571.3552856445312
2023-10-11 15:48:52.687639,794.981689453125,758.7179565429688,799.010986328125,771.6116943359375,736.1538696289062
2023-10-11 15:48:52.689418,824.7985229492188,770.4029541015625,792.967041015625,840.915771484375,931.1721801757812
2023-10-11 15:48:52.690858,815.1282348632812,770.4029541015625,806.2637329101562,837.6923217773438,885.6410522460938
2023-10-11 15:48:52.696271,795.3846435546875,762.3442993164062,800.2197875976562,809.4871826171875,713.99267578125
2023-10-11 15:48:52.697345,782.087890625,759.5238037109375,792.5640869140625,797.8021850585938,599.5604248046875
2023-10-11 15:48:52.698296,799.010986328125,771.6116943359375,784.1025390625,801.4285888671875,688.2051391601562
2023-10-11 15:48:52.699884,821.97802734375,776.4468994140625,784.1025390625,809.084228515625,894.908447265625
2023-10-11 15:48:52.701411,809.4871826171875,768.3883056640625,795.3846435546875,778.8644409179688,940.4395751953125
2023-10-11 15:48:52.702975,803.4432373046875,768.7911987304688,779.2673950195312,764.7619018554688,975.8974609375
2023-10-11 15:48:52.704773,803.040283203125,772.4176025390625,785.3113403320312,813.113525390625,813.91943359375
2023-10-11 15:48:52.706081,805.054931640625,767.9853515625,798.6080322265625,827.6190185546875,617.2893676757812
2023-10-11 15:48:52.707312,830.03662109375,768.7911987304688,791.7582397460938,828.02197265625,827.2161254882812
2023-10-11 15:48:52.752528,828.02197265625,767.5823974609375,790.952392578125,806.6666870117188,992.0146484375
2023-10-11 15:48:52.754566,830.8424682617188,772.8204956054688,788.5347900390625,796.1904907226562,788.5347900390625
2023-10-11 15:48:52.756770,834.4688720703125,775.6410522460938,792.967041015625,809.4871826171875,565.3113403320312
2023-10-11 15:48:52.758585,819.96337890625,770.8058471679688,800.6226806640625,779.6703491210938,626.5567626953125
2023-10-11 15:48:52.760574,831.2454223632812,771.6116943359375,799.4139404296875,778.4615478515625,823.1868286132812
2023-10-11 15:48:52.761910,851.7948608398438,775.2380981445312,788.1318969726562,839.7069702148438,967.4359130859375
2023-10-11 15:48:52.764397,819.96337890625,770.8058471679688,801.025634765625,828.8278198242188,888.4615478515625
2023-10-11 15:48:52.769250,785.3113403320312,767.1795043945312,803.4432373046875,806.2637329101562,799.010986328125
2023-10-11 15:48:52.770806,793.7728881835938,772.8204956054688,789.3406372070312,841.7216186523438,821.1721801757812
2023-10-11 15:48:52.772347,807.4725341796875,774.4322509765625,789.7435913085938,862.6740112304688,799.010986328125
2023-10-11 15:48:52.773617,828.8278198242188,772.8204956054688,800.2197875976562,854.2124633789062,881.2088012695312
2023-10-11 15:48:52.774857,805.4578857421875,774.8351440429688,799.010986328125,838.901123046875,878.7911987304688
2023-10-11 15:48:52.791672,785.3113403320312,774.8351440429688,795.7875366210938,840.10986328125,704.3223266601562
2023-10-11 15:48:52.793472,810.6959838867188,773.6264038085938,804.6520385742188,854.2124633789062,610.03662109375
2023-10-11 15:48:52.795757,830.4395751953125,780.0732421875,795.7875366210938,845.7509155273438,753.4798583984375
2023-10-11 15:48:52.798952,832.4542236328125,780.879150390625,804.6520385742188,828.4249267578125,911.8314819335938
2023-10-11 15:48:52.801401,834.4688720703125,779.6703491210938,811.5018310546875,815.5311279296875,848.1685180664062
2023-10-11 15:48:52.816100,834.8717651367188,782.893798828125,783.6996459960938,834.4688720703125,724.8717651367188
2023-10-11 15:48:52.818293,819.5604248046875,778.8644409179688,796.1904907226562,855.4212646484375,749.047607421875
2023-10-11 15:48:52.819738,821.1721801757812,778.4615478515625,806.2637329101562,855.018310546875,947.2893676757812
2023-10-11 15:48:52.820955,814.7252807617188,780.4761962890625,801.4285888671875,835.6776733398438,984.3589477539062
2023-10-11 15:48:52.822006,821.97802734375,780.879150390625,797.3992919921875,825.2014770507812,776.0439453125
2023-10-11 15:48:52.823663,840.10986328125,780.4761962890625,807.4725341796875,855.4212646484375,668.05859375
2023-10-11 15:48:52.826351,823.5897216796875,780.0732421875,805.4578857421875,848.974365234375,644.2857055664062
2023-10-11 15:48:52.851800,823.1868286132812,782.087890625,808.6813354492188,836.4835205078125,718.8278198242188
2023-10-11 15:48:52.853612,846.5567626953125,793.7728881835938,812.7106323242188,831.6483764648438,809.89013671875
2023-10-11 15:48:52.854863,846.5567626953125,796.1904907226562,805.8607788085938,850.1831665039062,901.3552856445312
2023-10-11 15:48:52.856558,821.5750732421875,785.3113403320312,809.084228515625,866.3003540039062,846.5567626953125
2023-10-11 15:48:52.857832,818.3516235351562,782.087890625,803.8461303710938,850.5860595703125,651.1355590820312
2023-10-11 15:48:52.859243,832.4542236328125,787.7289428710938,799.010986328125,847.3626098632812,697.87548828125
2023-10-11 15:48:52.860884,838.4981689453125,787.3259887695312,802.6373901367188,851.7948608398438,982.3442993164062
2023-10-11 15:48:52.862371,829.2307739257812,782.4908447265625,804.2490844726562,839.7069702148438,1083.4798583984375
2023-10-11 15:48:52.863756,817.5457763671875,782.4908447265625,799.4139404296875,835.6776733398438,777.2527465820312
2023-10-11 15:48:52.865449,815.93408203125,780.0732421875,803.040283203125,837.2893676757812,627.3626098632812
2023-10-11 15:48:52.866987,819.96337890625,782.893798828125,806.6666870117188,831.2454223632812,707.94873046875
2023-10-11 15:48:52.868343,822.7838745117188,782.087890625,806.2637329101562,834.06591796875,816.7399291992188
2023-10-11 15:48:52.885297,823.99267578125,782.087890625,804.6520385742188,831.6483764648438,808.2783813476562
2023-10-11 15:48:52.887691,818.7545776367188,786.1171875,803.040283203125,819.96337890625,739.7802124023438
2023-10-11 15:48:52.890560,803.040283203125,782.893798828125,799.4139404296875,826.4102783203125,699.084228515625
2023-10-11 15:48:52.892016,823.99267578125,785.3113403320312,798.2051391601562,836.4835205078125,754.2857055664062
2023-10-11 15:48:52.894311,836.4835205078125,786.1171875,801.8314819335938,824.7985229492188,851.3919677734375
2023-10-11 15:48:52.895575,828.8278198242188,785.7142944335938,799.8168334960938,814.3223266601562,901.7582397460938
2023-10-11 15:48:52.897753,808.2783813476562,785.7142944335938,801.8314819335938,830.03662109375,1060.915771484375
2023-10-11 15:48:52.910115,797.8021850585938,785.3113403320312,805.4578857421875,829.6337280273438,930.7692260742188
2023-10-11 15:48:52.912980,834.8717651367188,793.7728881835938,799.010986328125,825.2014770507812,662.0146484375
2023-10-11 15:48:52.914443,846.1538696289062,795.3846435546875,800.2197875976562,852.6007080078125,772.4176025390625
2023-10-11 15:48:52.915908,827.6190185546875,789.3406372070312,804.2490844726562,842.930419921875,949.7069702148438
2023-10-11 15:48:52.917571,815.1282348632812,791.7582397460938,806.6666870117188,822.3809814453125,814.3223266601562
2023-10-11 15:48:52.952745,814.7252807617188,793.3699340820312,806.6666870117188,830.4395751953125,585.4578857421875
2023-10-11 15:48:52.956370,817.1428833007812,787.7289428710938,805.4578857421875,824.7985229492188,646.7033081054688
2023-10-11 15:48:52.957681,821.97802734375,789.3406372070312,801.8314819335938,832.8571166992188,796.1904907226562
2023-10-11 15:48:52.959180,832.8571166992188,799.010986328125,799.8168334960938,840.10986328125,833.2600708007812
2023-10-11 15:48:52.961609,821.1721801757812,801.4285888671875,803.040283203125,826.4102783203125,766.7765502929688
2023-10-11 15:48:52.963827,800.6226806640625,796.996337890625,804.6520385742188,819.5604248046875,806.6666870117188
2023-10-11 15:48:52.966612,800.2197875976562,794.981689453125,806.2637329101562,812.3076782226562,877.5823974609375
2023-10-11 15:48:52.970857,813.5164794921875,793.3699340820312,811.5018310546875,819.1575317382812,922.3076782226562
2023-10-11 15:48:52.973048,816.7399291992188,790.1465454101562,813.5164794921875,825.2014770507812,908.2051391601562
2023-10-11 15:48:52.976021,813.5164794921875,790.5494384765625,812.3076782226562,830.4395751953125,897.3259887695312
2023-10-11 15:48:52.977316,806.6666870117188,786.5201416015625,811.098876953125,818.3516235351562,864.6886596679688
2023-10-11 15:48:52.978461,805.4578857421875,782.893798828125,811.90478515625,802.6373901367188,628.5714111328125
2023-10-11 15:48:52.986367,813.91943359375,784.5054931640625,819.5604248046875,823.99267578125,707.1428833007812
2023-10-11 15:48:52.987778,814.7252807617188,787.3259887695312,812.3076782226562,828.02197265625,895.3113403320312
2023-10-11 15:48:52.989409,797.8021850585938,786.5201416015625,803.040283203125,812.7106323242188,826.8131713867188
2023-10-11 15:48:52.990595,788.5347900390625,786.1171875,808.2783813476562,804.2490844726562,655.1648559570312
2023-10-11 15:48:52.992316,782.4908447265625,786.1171875,812.3076782226562,807.069580078125,595.1282348632812
2023-10-11 15:48:52.993635,804.2490844726562,785.3113403320312,812.7106323242188,814.3223266601562,813.5164794921875
2023-10-11 15:48:52.995122,828.02197265625,791.3552856445312,810.2930297851562,822.7838745117188,996.0439453125
2023-10-11 15:48:52.996487,810.6959838867188,794.5787353515625,809.89013671875,819.1575317382812,863.4798583984375
2023-10-11 15:48:52.998301,804.6520385742188,797.3992919921875,814.3223266601562,806.2637329101562,660.4029541015625
2023-10-11 15:48:53.007946,805.4578857421875,798.6080322265625,811.5018310546875,812.7106323242188,807.069580078125
2023-10-11 15:48:53.009942,804.2490844726562,798.6080322265625,811.5018310546875,831.2454223632812,894.908447265625
2023-10-11 15:48:53.011482,826.00732421875,804.2490844726562,811.5018310546875,843.3333129882812,815.1282348632812
2023-10-11 15:48:53.021075,828.02197265625,803.4432373046875,811.098876953125,840.10986328125,862.2710571289062
2023-10-11 15:48:53.022521,813.113525390625,801.8314819335938,811.098876953125,821.5750732421875,715.2014770507812
2023-10-11 15:48:53.024303,808.6813354492188,802.6373901367188,806.2637329101562,814.7252807617188,538.3150024414062
2023-10-11 15:48:53.027789,818.3516235351562,802.6373901367188,808.2783813476562,804.2490844726562,603.5897216796875
2023-10-11 15:48:53.029192,826.8131713867188,803.8461303710938,806.2637329101562,808.2783813476562,878.3883056640625
2023-10-11 15:48:53.030456,821.97802734375,804.2490844726562,802.2344360351562,822.3809814453125,961.7948608398438
2023-10-11 15:48:53.032583,810.6959838867188,805.8607788085938,807.87548828125,805.054931640625,772.4176025390625
2023-10-11 15:48:53.033795,803.040283203125,805.054931640625,811.90478515625,793.7728881835938,604.7985229492188
2023-10-11 15:48:53.036492,802.6373901367188,801.8314819335938,813.113525390625,809.4871826171875,743.003662109375
2023-10-11 15:48:53.038394,816.7399291992188,805.054931640625,810.6959838867188,821.97802734375,1032.7105712890625
2023-10-11 15:48:53.040443,823.5897216796875,808.2783813476562,812.7106323242188,811.098876953125,937.6190185546875
2023-10-11 15:48:53.042131,803.8461303710938,804.2490844726562,814.7252807617188,799.4139404296875,753.8828125
2023-10-11 15:48:53.084843,804.6520385742188,805.054931640625,803.8461303710938,815.93408203125,685.3846435546875
2023-10-11 15:48:53.087189,811.5018310546875,805.054931640625,804.6520385742188,825.6043701171875,687.8021850585938
2023-10-11 15:48:53.088822,819.96337890625,805.8607788085938,809.084228515625,815.93408203125,801.8314819335938
2023-10-11 15:48:53.089946,821.97802734375,805.4578857421875,803.040283203125,822.7838745117188,893.6996459960938
2023-10-11 15:48:53.090944,792.967041015625,797.3992919921875,800.2197875976562,801.4285888671875,809.89013671875
2023-10-11 15:48:53.092184,792.1611938476562,796.1904907226562,803.8461303710938,795.3846435546875,688.2051391601562
2023-10-11 15:48:53.094060,801.8314819335938,803.040283203125,805.4578857421875,797.8021850585938,721.6483764648438
2023-10-11 15:48:53.095498,811.098876953125,806.2637329101562,807.4725341796875,792.967041015625,847.3626098632812
2023-10-11 15:48:53.097356,819.5604248046875,805.054931640625,812.3076782226562,823.5897216796875,1088.3150634765625
2023-10-11 15:48:53.098777,809.084228515625,808.2783813476562,810.2930297851562,828.4249267578125,996.0439453125
2023-10-11 15:48:53.099794,798.6080322265625,806.6666870117188,810.6959838867188,790.5494384765625,645.091552734375
2023-10-11 15:48:53.109054,795.7875366210938,803.8461303710938,814.3223266601562,776.0439453125,657.1795043945312
2023-10-11 15:48:53.120257,819.1575317382812,809.084228515625,813.113525390625,817.94873046875,839.7069702148438
2023-10-11 15:48:53.124848,824.3956298828125,811.90478515625,814.3223266601562,834.4688720703125,910.2197875976562
2023-10-11 15:48:53.126422,817.5457763671875,809.084228515625,814.3223266601562,813.113525390625,807.4725341796875
2023-10-11 15:48:53.127502,811.098876953125,807.87548828125,806.2637329101562,801.025634765625,748.2417602539062
2023-10-11 15:48:53.128943,792.5640869140625,807.4725341796875,804.2490844726562,798.2051391601562,743.8095092773438
2023-10-11 15:48:53.130158,804.6520385742188,805.8607788085938,813.91943359375,798.6080322265625,843.7362670898438
2023-10-11 15:48:53.131667,812.3076782226562,803.040283203125,812.7106323242188,795.3846435546875,996.0439453125
2023-10-11 15:48:53.133391,805.054931640625,803.040283203125,809.4871826171875,788.937744140625,953.7362670898438
2023-10-11 15:48:53.135022,798.2051391601562,806.6666870117188,805.4578857421875,794.981689453125,854.2124633789062
2023-10-11 15:48:53.136724,784.5054931640625,808.6813354492188,807.069580078125,796.1904907226562,676.5201416015625
2023-10-11 15:48:53.138545,802.2344360351562,813.91943359375,813.5164794921875,804.2490844726562,706.7399291992188
2023-10-11 15:48:53.141159,819.1575317382812,817.1428833007812,809.89013671875,815.93408203125,862.2710571289062
2023-10-11 15:48:53.152182,811.5018310546875,812.7106323242188,804.6520385742188,802.6373901367188,838.901123046875
2023-10-11 15:48:53.153430,798.2051391601562,811.098876953125,804.2490844726562,794.981689453125,660.8058471679688
2023-10-11 15:48:53.154866,784.1025390625,807.4725341796875,807.4725341796875,802.2344360351562,601.97802734375
2023-10-11 15:48:53.156006,803.8461303710938,802.6373901367188,814.3223266601562,806.6666870117188,735.3479614257812
2023-10-11 15:48:53.157646,820.3662719726562,805.4578857421875,813.113525390625,818.3516235351562,866.3003540039062
2023-10-11 15:48:53.158918,802.6373901367188,803.4432373046875,808.2783813476562,805.4578857421875,884.4322509765625
2023-10-11 15:48:53.160276,796.5933837890625,803.4432373046875,805.8607788085938,775.2380981445312,759.9267578125
2023-10-11 15:48:53.161855,801.025634765625,806.2637329101562,809.084228515625,789.3406372070312,859.4505615234375
2023-10-11 15:48:53.163776,803.4432373046875,810.2930297851562,813.5164794921875,800.2197875976562,933.5897216796875
2023-10-11 15:48:53.165883,800.6226806640625,808.2783813476562,810.6959838867188,797.3992919921875,822.7838745117188
2023-10-11 15:48:53.167895,797.8021850585938,803.8461303710938,812.3076782226562,801.4285888671875,851.7948608398438
2023-10-11 15:48:53.169739,784.908447265625,803.040283203125,818.3516235351562,793.7728881835938,793.7728881835938
2023-10-11 15:48:53.218525,774.4322509765625,801.4285888671875,814.3223266601562,782.4908447265625,637.4359130859375
2023-10-11 15:48:53.227581,793.7728881835938,803.040283203125,807.4725341796875,816.3369750976562,655.1648559570312
2023-10-11 15:48:53.228655,801.8314819335938,806.2637329101562,812.3076782226562,813.5164794921875,846.5567626953125
2023-10-11 15:48:53.230099,793.7728881835938,802.2344360351562,812.3076782226562,783.6996459960938,863.076904296875
2023-10-11 15:48:53.231204,792.5640869140625,794.981689453125,807.87548828125,772.0146484375,713.1868286132812
2023-10-11 15:48:53.232936,788.937744140625,801.8314819335938,804.2490844726562,780.879150390625,668.4615478515625
2023-10-11 15:48:53.234226,797.8021850585938,801.4285888671875,809.084228515625,821.97802734375,846.5567626953125
2023-10-11 15:48:53.235644,795.3846435546875,799.4139404296875,815.5311279296875,824.7985229492188,1053.6629638671875
2023-10-11 15:48:53.236833,796.1904907226562,796.996337890625,806.2637329101562,807.87548828125,963.4066162109375
2023-10-11 15:48:53.238479,796.1904907226562,794.5787353515625,807.87548828125,809.084228515625,763.1502075195312
2023-10-11 15:48:53.239773,782.893798828125,799.8168334960938,809.4871826171875,802.6373901367188,732.12451171875
2023-10-11 15:48:53.242705,783.6996459960938,803.8461303710938,805.4578857421875,794.981689453125,764.3589477539062
2023-10-11 15:48:53.264611,792.1611938476562,809.89013671875,807.4725341796875,799.010986328125,790.1465454101562
2023-10-11 15:48:53.266028,791.7582397460938,807.4725341796875,809.084228515625,790.1465454101562,866.7033081054688
2023-10-11 15:48:53.269814,801.4285888671875,809.4871826171875,799.8168334960938,798.2051391601562,803.8461303710938
2023-10-11 15:48:53.271468,788.5347900390625,811.5018310546875,802.2344360351562,796.996337890625,688.2051391601562
2023-10-11 15:48:53.275159,781.2820434570312,803.8461303710938,813.5164794921875,786.923095703125,659.5970458984375
2023-10-11 15:48:53.277982,807.4725341796875,804.6520385742188,808.6813354492188,796.1904907226562,833.6630249023438
2023-10-11 15:48:53.279569,808.2783813476562,803.040283203125,807.4725341796875,790.952392578125,1141.5018310546875
2023-10-11 15:48:53.281948,813.5164794921875,796.5933837890625,819.5604248046875,805.4578857421875,965.4212646484375
2023-10-11 15:48:53.286493,820.3662719726562,806.6666870117188,811.098876953125,808.2783813476562,581.8314819335938
2023-10-11 15:48:53.288351,812.7106323242188,816.3369750976562,796.1904907226562,786.923095703125,618.4981689453125
2023-10-11 15:48:53.290306,813.5164794921875,820.3662719726562,799.4139404296875,788.1318969726562,826.8131713867188
2023-10-11 15:48:53.296758,813.91943359375,815.93408203125,792.5640869140625,777.6557006835938,902.5640869140625
2023-10-11 15:48:53.319738,796.1904907226562,809.89013671875,790.952392578125,786.923095703125,773.2234497070312
2023-10-11 15:48:53.321114,783.6996459960938,819.96337890625,798.6080322265625,791.7582397460938,682.967041015625
2023-10-11 15:48:53.322370,785.3113403320312,819.96337890625,799.010986328125,784.5054931640625,723.6630249023438
2023-10-11 15:48:53.332320,792.1611938476562,819.5604248046875,794.5787353515625,787.7289428710938,787.3259887695312
2023-10-11 15:48:53.333913,791.7582397460938,823.5897216796875,790.5494384765625,782.893798828125,859.4505615234375
2023-10-11 15:48:53.335737,780.4761962890625,811.5018310546875,791.3552856445312,787.3259887695312,967.032958984375
2023-10-11 15:48:53.337562,779.6703491210938,813.5164794921875,798.2051391601562,791.3552856445312,944.4688720703125
2023-10-11 15:48:53.339618,770.4029541015625,819.1575317382812,804.2490844726562,786.5201416015625,696.2637329101562
2023-10-11 15:48:53.341515,770.8058471679688,816.7399291992188,806.6666870117188,779.2673950195312,727.6923217773438
2023-10-11 15:48:53.343206,806.2637329101562,822.3809814453125,808.2783813476562,768.3883056640625,954.5421142578125
2023-10-11 15:48:53.344801,809.89013671875,828.02197265625,805.8607788085938,775.6410522460938,904.5787353515625
2023-10-11 15:48:53.346677,792.5640869140625,821.5750732421875,804.6520385742188,794.1758422851562,646.3003540039062
2023-10-11 15:48:53.386154,797.3992919921875,826.8131713867188,801.4285888671875,794.5787353515625,562.4908447265625
2023-10-11 15:48:53.388713,806.6666870117188,828.8278198242188,798.2051391601562,810.6959838867188,751.8681030273438
2023-10-11 15:48:53.391019,823.1868286132812,816.7399291992188,811.90478515625,802.2344360351562,979.120849609375
2023-10-11 15:48:53.392426,818.3516235351562,815.93408203125,807.069580078125,777.6557006835938,891.6849975585938
2023-10-11 15:48:53.394561,799.4139404296875,819.1575317382812,793.3699340820312,785.3113403320312,689.4139404296875
2023-10-11 15:48:53.399586,805.4578857421875,822.7838745117188,804.2490844726562,819.1575317382812,907.3992919921875
2023-10-11 15:48:53.401286,814.3223266601562,812.3076782226562,811.90478515625,819.1575317382812,1052.4542236328125
2023-10-11 15:48:53.402713,815.5311279296875,810.2930297851562,807.87548828125,792.967041015625,881.6116943359375
2023-10-11 15:48:53.403807,815.1282348632812,815.5311279296875,811.098876953125,780.0732421875,855.8241577148438
2023-10-11 15:48:53.405154,806.2637329101562,812.7106323242188,812.7106323242188,794.5787353515625,755.4945068359375
2023-10-11 15:48:53.406341,797.3992919921875,815.1282348632812,819.5604248046875,804.6520385742188,622.5274658203125
2023-10-11 15:48:53.407646,801.8314819335938,815.1282348632812,812.3076782226562,801.8314819335938,675.3113403320312
2023-10-11 15:48:53.418256,814.3223266601562,818.7545776367188,801.8314819335938,801.025634765625,871.5384521484375
2023-10-11 15:48:53.419896,823.99267578125,817.1428833007812,809.89013671875,802.6373901367188,924.7252807617188
2023-10-11 15:48:53.421400,792.1611938476562,811.5018310546875,813.91943359375,785.7142944335938,727.6923217773438
2023-10-11 15:48:53.422996,782.4908447265625,808.2783813476562,813.91943359375,776.0439453125,591.90478515625
2023-10-11 15:48:53.424803,793.7728881835938,816.3369750976562,804.6520385742188,803.8461303710938,741.3919677734375
2023-10-11 15:48:53.435518,806.6666870117188,809.89013671875,802.6373901367188,803.8461303710938,925.1282348632812
2023-10-11 15:48:53.437193,818.3516235351562,805.4578857421875,808.2783813476562,792.1611938476562,936.4102783203125
2023-10-11 15:48:53.438606,804.6520385742188,811.90478515625,806.2637329101562,786.5201416015625,744.2124633789062
2023-10-11 15:48:53.440403,808.2783813476562,807.069580078125,802.6373901367188,802.2344360351562,674.908447265625
2023-10-11 15:48:53.441918,815.5311279296875,807.87548828125,807.4725341796875,811.5018310546875,837.6923217773438
2023-10-11 15:48:53.443633,826.4102783203125,811.5018310546875,811.5018310546875,827.2161254882812,832.05126953125
2023-10-11 15:48:53.445068,828.02197265625,809.084228515625,812.7106323242188,826.00732421875,842.930419921875
2023-10-11 15:48:53.452176,811.5018310546875,813.5164794921875,814.3223266601562,803.8461303710938,785.7142944335938
2023-10-11 15:48:53.453685,808.6813354492188,818.3516235351562,811.098876953125,816.7399291992188,618.901123046875
2023-10-11 15:48:53.455018,812.3076782226562,814.3223266601562,807.4725341796875,809.084228515625,620.5128173828125
2023-10-11 15:48:53.457008,814.7252807617188,806.2637329101562,805.054931640625,803.8461303710938,791.3552856445312
2023-10-11 15:48:53.458879,819.96337890625,823.99267578125,810.2930297851562,819.96337890625,880.8058471679688
2023-10-11 15:48:53.460637,808.2783813476562,821.97802734375,814.7252807617188,796.5933837890625,869.5238037109375
2023-10-11 15:48:53.461964,808.2783813476562,800.6226806640625,811.098876953125,784.908447265625,723.6630249023438
2023-10-11 15:48:53.463737,806.6666870117188,809.89013671875,806.2637329101562,800.2197875976562,682.1611938476562
2023-10-11 15:48:53.465671,809.89013671875,816.3369750976562,806.6666870117188,805.4578857421875,1008.937744140625
2023-10-11 15:48:53.467207,819.1575317382812,818.7545776367188,805.054931640625,811.098876953125,1074.6153564453125
2023-10-11 15:48:53.468752,807.069580078125,817.1428833007812,802.6373901367188,806.2637329101562,777.6557006835938
2023-10-11 15:48:53.470592,810.2930297851562,809.4871826171875,805.4578857421875,810.2930297851562,641.8681030273438
2023-10-11 15:48:53.485820,809.4871826171875,815.5311279296875,805.8607788085938,805.8607788085938,712.3809814453125
2023-10-11 15:48:53.487668,811.098876953125,812.7106323242188,808.6813354492188,794.5787353515625,784.908447265625
2023-10-11 15:48:53.489434,812.7106323242188,811.90478515625,802.2344360351562,792.5640869140625,844.5421142578125
2023-10-11 15:48:53.491387,794.981689453125,814.3223266601562,796.996337890625,796.996337890625,822.3809814453125
2023-10-11 15:48:53.493258,786.1171875,811.90478515625,807.069580078125,795.3846435546875,675.7142944335938
2023-10-11 15:48:53.495036,802.2344360351562,814.7252807617188,799.010986328125,803.8461303710938,670.879150390625
2023-10-11 15:48:53.496685,814.3223266601562,819.96337890625,787.7289428710938,799.4139404296875,838.901123046875
2023-10-11 15:48:53.504874,820.3662719726562,821.97802734375,798.2051391601562,796.996337890625,1039.5604248046875
2023-10-11 15:48:53.506370,812.7106323242188,814.3223266601562,809.084228515625,802.6373901367188,1007.3259887695312
2023-10-11 15:48:53.507525,801.025634765625,815.93408203125,807.069580078125,802.2344360351562,701.5018310546875
2023-10-11 15:48:53.508864,792.1611938476562,816.7399291992188,812.3076782226562,791.7582397460938,604.3956298828125
2023-10-11 15:48:53.510185,800.2197875976562,816.7399291992188,812.3076782226562,786.5201416015625,856.2271118164062
2023-10-11 15:48:53.551903,815.5311279296875,821.1721801757812,810.2930297851562,804.6520385742188,1002.4908447265625
2023-10-11 15:48:53.553347,805.4578857421875,821.1721801757812,817.94873046875,808.6813354492188,821.5750732421875
2023-10-11 15:48:53.554980,794.1758422851562,817.94873046875,823.5897216796875,795.3846435546875,653.1502075195312
2023-10-11 15:48:53.558856,790.5494384765625,827.2161254882812,815.1282348632812,785.7142944335938,616.08056640625
2023-10-11 15:48:53.560124,795.3846435546875,825.6043701171875,811.098876953125,778.05859375,752.2710571289062
2023-10-11 15:48:53.561366,788.937744140625,815.1282348632812,816.3369750976562,784.5054931640625,896.5201416015625
2023-10-11 15:48:53.562606,772.8204956054688,811.098876953125,817.1428833007812,773.6264038085938,913.040283203125
2023-10-11 15:48:53.563830,747.8388061523438,817.1428833007812,819.5604248046875,749.047607421875,908.6080322265625
2023-10-11 15:48:53.565117,729.7069702148438,817.1428833007812,818.3516235351562,740.1831665039062,787.7289428710938
2023-10-11 15:48:53.566823,732.12451171875,817.5457763671875,817.5457763671875,735.3479614257812,685.3846435546875
2023-10-11 15:48:53.568241,735.3479614257812,812.7106323242188,822.3809814453125,746.2271118164062,839.3040161132812
2023-10-11 15:48:53.569755,723.2600708007812,795.7875366210938,828.8278198242188,725.6776733398438,876.7765502929688
2023-10-11 15:48:53.592392,674.5054931640625,799.8168334960938,830.4395751953125,689.8168334960938,757.912109375
2023-10-11 15:48:53.593655,662.4176025390625,796.1904907226562,832.4542236328125,689.010986328125,663.2234497070312
2023-10-11 15:48:53.595098,691.025634765625,794.5787353515625,827.6190185546875,682.5640869140625,728.901123046875
2023-10-11 15:48:53.596926,686.5933837890625,795.7875366210938,826.4102783203125,681.3552856445312,907.8021850585938
2023-10-11 15:48:53.598970,660.8058471679688,789.3406372070312,835.2747192382812,678.1318969726562,853.4066162109375
2023-10-11 15:48:53.604015,648.3150024414062,787.3259887695312,836.886474609375,657.5823974609375,755.091552734375
2023-10-11 15:48:53.606528,639.4505615234375,800.2197875976562,815.1282348632812,643.8828125,805.4578857421875
2023-10-11 15:48:53.609634,636.2271118164062,791.3552856445312,830.03662109375,643.4798583984375,876.7765502929688
2023-10-11 15:48:53.611565,673.6996459960938,789.3406372070312,826.8131713867188,670.879150390625,829.6337280273438
2023-10-11 15:48:53.619837,674.5054931640625,798.2051391601562,808.6813354492188,682.1611938476562,808.2783813476562
2023-10-11 15:48:53.621086,641.8681030273438,789.7435913085938,826.4102783203125,637.4359130859375,728.4981689453125
2023-10-11 15:48:53.622723,671.6849975585938,797.3992919921875,815.93408203125,661.6116943359375,600.7692260742188
2023-10-11 15:48:53.652028,707.1428833007812,802.2344360351562,815.5311279296875,718.02197265625,611.6483764648438
2023-10-11 15:48:53.653782,723.2600708007812,808.2783813476562,815.1282348632812,710.7692260742188,775.6410522460938
2023-10-11 15:48:53.655195,728.09521484375,814.7252807617188,805.8607788085938,727.2893676757812,857.8388061523438
2023-10-11 15:48:53.656801,735.7509155273438,809.084228515625,810.2930297851562,744.6153564453125,789.3406372070312
2023-10-11 15:48:53.658230,736.1538696289062,813.91943359375,808.2783813476562,739.3773193359375,691.4285888671875
2023-10-11 15:48:53.659954,725.2747192382812,817.1428833007812,805.4578857421875,746.6300659179688,709.1575317382812
2023-10-11 15:48:53.661492,757.106201171875,795.3846435546875,818.3516235351562,739.3773193359375,1061.7215576171875
2023-10-11 15:48:53.662888,763.5531005859375,811.098876953125,814.7252807617188,756.3003540039062,1110.879150390625
2023-10-11 15:48:53.664496,768.3883056640625,817.1428833007812,805.4578857421875,770.0,765.5677490234375
2023-10-11 15:48:53.665954,796.996337890625,794.5787353515625,797.3992919921875,759.9267578125,651.1355590820312
2023-10-11 15:48:53.667437,783.6996459960938,799.4139404296875,817.1428833007812,776.8497924804688,728.4981689453125
2023-10-11 15:48:53.668853,805.8607788085938,803.8461303710938,814.7252807617188,779.6703491210938,817.5457763671875
2023-10-11 15:48:53.685652,810.2930297851562,807.4725341796875,801.4285888671875,830.4395751953125,859.047607421875
2023-10-11 15:48:53.686984,778.8644409179688,802.2344360351562,818.3516235351562,813.113525390625,805.8607788085938
2023-10-11 15:48:53.688714,802.2344360351562,810.6959838867188,801.4285888671875,796.5933837890625,662.0146484375
2023-10-11 15:48:53.690018,826.8131713867188,813.113525390625,802.2344360351562,834.4688720703125,591.90478515625
2023-10-11 15:48:53.691318,823.1868286132812,811.5018310546875,809.4871826171875,813.113525390625,717.6190185546875
2023-10-11 15:48:53.692656,819.1575317382812,806.2637329101562,801.8314819335938,825.2014770507812,997.2527465820312
2023-10-11 15:48:53.694031,832.4542236328125,801.8314819335938,809.084228515625,870.7326049804688,1060.10986328125
2023-10-11 15:48:53.695808,839.3040161132812,813.113525390625,805.8607788085938,853.4066162109375,805.4578857421875
2023-10-11 15:48:53.697367,827.2161254882812,819.1575317382812,804.2490844726562,849.3773193359375,629.7802124023438
2023-10-11 15:48:53.698721,836.886474609375,813.5164794921875,809.4871826171875,859.8534545898438,821.97802734375
2023-10-11 15:48:53.700435,850.1831665039062,811.90478515625,805.054931640625,862.2710571289062,1040.769287109375
2023-10-11 15:48:53.709652,848.974365234375,811.5018310546875,803.8461303710938,861.8681030273438,848.1685180664062
2023-10-11 15:48:53.718466,845.3479614257812,815.5311279296875,804.6520385742188,863.8828125,689.8168334960938
2023-10-11 15:48:53.719762,843.7362670898438,812.3076782226562,806.2637329101562,855.8241577148438,647.5091552734375
2023-10-11 15:48:53.721383,851.3919677734375,809.4871826171875,804.6520385742188,855.4212646484375,736.1538696289062
2023-10-11 15:48:53.722743,873.1502075195312,816.3369750976562,800.6226806640625,865.091552734375,844.5421142578125
2023-10-11 15:48:53.724192,866.3003540039062,815.5311279296875,806.2637329101562,869.5238037109375,847.7655639648438
2023-10-11 15:48:53.725533,844.945068359375,817.1428833007812,810.2930297851562,863.4798583984375,890.4761962890625
2023-10-11 15:48:53.727048,845.3479614257812,818.3516235351562,807.069580078125,850.5860595703125,799.010986328125
2023-10-11 15:48:53.728632,860.6593627929688,814.3223266601562,805.8607788085938,878.7911987304688,717.2161254882812
2023-10-11 15:48:53.730177,857.8388061523438,811.90478515625,809.4871826171875,881.6116943359375,839.7069702148438
2023-10-11 15:48:53.731535,844.1392211914062,811.90478515625,806.2637329101562,874.3589477539062,1036.7398681640625
2023-10-11 15:48:53.732813,846.1538696289062,812.3076782226562,800.6226806640625,880.8058471679688,830.4395751953125
2023-10-11 15:48:53.734395,840.10986328125,808.2783813476562,806.6666870117188,862.6740112304688,524.6153564453125
2023-10-11 15:48:53.785282,841.7216186523438,807.4725341796875,806.6666870117188,869.5238037109375,652.7472534179688
2023-10-11 15:48:53.786408,850.989013671875,811.5018310546875,801.4285888671875,861.062255859375,840.5128173828125
2023-10-11 15:48:53.787831,851.7948608398438,816.3369750976562,801.8314819335938,846.5567626953125,842.12451171875
2023-10-11 15:48:53.789729,819.96337890625,815.93408203125,817.5457763671875,834.06591796875,689.4139404296875
2023-10-11 15:48:53.790829,797.8021850585938,818.7545776367188,813.5164794921875,805.4578857421875,628.5714111328125
2023-10-11 15:48:53.792311,827.2161254882812,819.5604248046875,805.4578857421875,838.901123046875,772.4176025390625
2023-10-11 15:48:53.793916,841.3186645507812,817.94873046875,804.6520385742188,861.062255859375,885.6410522460938
2023-10-11 15:48:53.795470,826.00732421875,818.3516235351562,802.2344360351562,838.4981689453125,869.9267578125
2023-10-11 15:48:53.797090,820.3662719726562,813.91943359375,813.5164794921875,801.025634765625,873.5531005859375
2023-10-11 15:48:53.799035,814.3223266601562,821.5750732421875,809.89013671875,806.6666870117188,845.7509155273438
2023-10-11 15:48:53.800635,830.03662109375,822.3809814453125,802.2344360351562,855.018310546875,683.7728881835938
2023-10-11 15:48:53.801938,855.8241577148438,811.5018310546875,803.8461303710938,847.3626098632812,805.054931640625
2023-10-11 15:48:53.827629,861.062255859375,815.93408203125,799.010986328125,825.2014770507812,1025.054931640625
2023-10-11 15:48:53.841523,855.8241577148438,821.1721801757812,797.8021850585938,810.2930297851562,879.1941528320312
2023-10-11 15:48:53.843129,835.6776733398438,816.3369750976562,804.6520385742188,809.4871826171875,623.7362670898438
2023-10-11 15:48:53.845272,839.3040161132812,818.3516235351562,793.3699340820312,794.1758422851562,614.4688720703125
2023-10-11 15:48:53.846627,845.7509155273438,819.1575317382812,795.7875366210938,782.893798828125,800.6226806640625
2023-10-11 15:48:53.848252,836.4835205078125,817.5457763671875,805.8607788085938,812.7106323242188,993.6264038085938
2023-10-11 15:48:53.850014,825.2014770507812,817.94873046875,799.4139404296875,824.7985229492188,878.7911987304688
2023-10-11 15:48:53.851522,795.7875366210938,812.3076782226562,803.4432373046875,824.7985229492188,660.4029541015625
2023-10-11 15:48:53.853145,792.1611938476562,811.90478515625,799.8168334960938,818.7545776367188,807.069580078125
2023-10-11 15:48:53.857916,818.7545776367188,815.1282348632812,793.7728881835938,812.3076782226562,927.5457763671875
2023-10-11 15:48:53.859889,816.7399291992188,815.93408203125,797.8021850585938,823.1868286132812,868.7179565429688
2023-10-11 15:48:53.862074,808.6813354492188,813.5164794921875,805.8607788085938,825.6043701171875,820.3662719726562
2023-10-11 15:48:53.885428,800.6226806640625,811.5018310546875,808.2783813476562,826.00732421875,682.5640869140625
2023-10-11 15:48:53.886875,779.6703491210938,808.2783813476562,817.5457763671875,805.054931640625,608.8278198242188
2023-10-11 15:48:53.888479,812.7106323242188,812.7106323242188,806.2637329101562,821.97802734375,760.3296508789062
2023-10-11 15:48:53.889732,826.8131713867188,806.2637329101562,796.996337890625,820.7692260742188,990.0
2023-10-11 15:48:53.891231,797.8021850585938,805.4578857421875,802.2344360351562,785.7142944335938,942.05126953125
2023-10-11 15:48:53.892574,796.996337890625,819.1575317382812,799.8168334960938,806.2637329101562,757.106201171875
2023-10-11 15:48:53.894316,799.010986328125,836.886474609375,794.981689453125,811.098876953125,667.2527465820312
2023-10-11 15:48:53.895767,810.2930297851562,825.6043701171875,805.8607788085938,784.908447265625,817.94873046875
2023-10-11 15:48:53.897497,823.1868286132812,811.098876953125,819.1575317382812,807.87548828125,1030.2930908203125
2023-10-11 15:48:53.898651,826.8131713867188,822.3809814453125,801.025634765625,827.2161254882812,864.2857055664062
2023-10-11 15:48:53.899903,810.2930297851562,820.7692260742188,802.2344360351562,803.040283203125,656.3735961914062
2023-10-11 15:48:53.901247,810.2930297851562,817.1428833007812,806.6666870117188,810.6959838867188,625.7509155273438
2023-10-11 15:48:53.918769,822.7838745117188,817.94873046875,801.4285888671875,803.8461303710938,722.05126953125
2023-10-11 15:48:53.920133,812.3076782226562,812.3076782226562,809.084228515625,755.091552734375,830.4395751953125
2023-10-11 15:48:53.921322,818.3516235351562,814.7252807617188,807.87548828125,790.952392578125,844.5421142578125
2023-10-11 15:48:53.929393,819.96337890625,819.96337890625,806.2637329101562,832.8571166992188,737.3626098632812
2023-10-11 15:48:53.930607,796.5933837890625,821.5750732421875,806.2637329101562,822.7838745117188,660.4029541015625
2023-10-11 15:48:53.931861,796.5933837890625,820.3662719726562,802.2344360351562,810.6959838867188,744.2124633789062
2023-10-11 15:48:53.933133,829.6337280273438,817.5457763671875,800.2197875976562,806.2637329101562,884.8351440429688
2023-10-11 15:48:53.934513,828.8278198242188,819.5604248046875,796.996337890625,814.7252807617188,1085.8974609375
2023-10-11 15:48:53.935917,801.8314819335938,816.3369750976562,811.90478515625,796.996337890625,976.7033081054688
2023-10-11 15:48:53.937441,803.8461303710938,822.7838745117188,816.7399291992188,788.937744140625,668.4615478515625
2023-10-11 15:48:53.938781,802.2344360351562,819.96337890625,821.5750732421875,779.2673950195312,716.00732421875
2023-10-11 15:48:53.939900,796.996337890625,814.3223266601562,818.7545776367188,754.6886596679688,950.915771484375
2023-10-11 15:48:53.985274,812.3076782226562,819.5604248046875,799.8168334960938,800.2197875976562,938.02197265625
2023-10-11 15:48:53.986766,799.4139404296875,812.7106323242188,805.8607788085938,812.7106323242188,718.02197265625
2023-10-11 15:48:53.988154,774.4322509765625,811.90478515625,812.7106323242188,777.6557006835938,657.5823974609375
2023-10-11 15:48:53.989457,794.981689453125,808.6813354492188,812.3076782226562,746.6300659179688,724.8717651367188
2023-10-11 15:48:53.991037,819.96337890625,808.2783813476562,809.084228515625,786.1171875,814.3223266601562
2023-10-11 15:48:53.992871,795.3846435546875,821.5750732421875,800.6226806640625,809.084228515625,905.3846435546875
2023-10-11 15:48:53.994653,770.8058471679688,816.3369750976562,816.3369750976562,737.3626098632812,911.8314819335938
2023-10-11 15:48:53.996097,803.040283203125,806.6666870117188,810.6959838867188,770.0,833.6630249023438
2023-10-11 15:48:53.997889,792.5640869140625,805.054931640625,805.8607788085938,801.4285888671875,716.8131713867188
2023-10-11 15:48:53.998968,799.4139404296875,812.3076782226562,807.87548828125,783.2966918945312,767.9853515625
2023-10-11 15:48:54.000184,835.2747192382812,814.3223266601562,801.8314819335938,826.4102783203125,918.2783813476562
2023-10-11 15:48:54.001865,832.05126953125,817.94873046875,800.6226806640625,835.6776733398438,830.03662109375
2023-10-11 15:48:54.019306,817.5457763671875,822.3809814453125,797.8021850585938,798.2051391601562,608.02197265625
2023-10-11 15:48:54.020946,813.91943359375,817.5457763671875,804.2490844726562,799.4139404296875,637.4359130859375
2023-10-11 15:48:54.022582,814.3223266601562,814.7252807617188,809.4871826171875,828.8278198242188,783.2966918945312
2023-10-11 15:48:54.023929,823.99267578125,822.7838745117188,794.1758422851562,836.4835205078125,860.2564086914062
2023-10-11 15:48:54.025714,814.7252807617188,822.3809814453125,799.4139404296875,805.054931640625,783.6996459960938
2023-10-11 15:48:54.033444,806.6666870117188,817.1428833007812,811.90478515625,803.4432373046875,723.2600708007812
2023-10-11 15:48:54.034479,814.7252807617188,820.7692260742188,802.6373901367188,826.4102783203125,867.912109375
2023-10-11 15:48:54.035528,836.4835205078125,828.02197265625,801.8314819335938,849.3773193359375,914.2490844726562
2023-10-11 15:48:54.036727,841.3186645507812,826.4102783203125,805.054931640625,846.5567626953125,851.3919677734375
2023-10-11 15:48:54.037799,830.03662109375,817.1428833007812,809.4871826171875,825.2014770507812,806.2637329101562
2023-10-11 15:48:54.038932,809.084228515625,822.7838745117188,799.010986328125,818.3516235351562,699.89013671875
2023-10-11 15:48:54.040193,785.3113403320312,813.5164794921875,810.2930297851562,825.6043701171875,695.054931640625
2023-10-11 15:48:54.062865,827.6190185546875,799.8168334960938,819.96337890625,835.2747192382812,757.106201171875
2023-10-11 15:48:54.064712,865.8974609375,814.7252807617188,807.069580078125,859.4505615234375,887.6557006835938
2023-10-11 15:48:54.066045,834.06591796875,812.3076782226562,819.96337890625,855.8241577148438,948.901123046875
2023-10-11 15:48:54.067282,822.7838745117188,806.6666870117188,815.1282348632812,844.945068359375,745.018310546875
2023-10-11 15:48:54.068910,822.7838745117188,807.4725341796875,811.90478515625,842.930419921875,628.5714111328125
2023-10-11 15:48:54.070387,825.2014770507812,803.040283203125,823.5897216796875,844.5421142578125,921.5018310546875
2023-10-11 15:48:54.072579,846.959716796875,807.4725341796875,812.7106323242188,877.5823974609375,1154.3956298828125
2023-10-11 15:48:54.076009,838.4981689453125,807.87548828125,808.6813354492188,867.5091552734375,901.3552856445312
2023-10-11 15:48:54.077787,819.96337890625,807.87548828125,813.5164794921875,836.886474609375,657.5823974609375
2023-10-11 15:48:54.079543,819.96337890625,813.5164794921875,810.6959838867188,834.4688720703125,680.1465454101562
2023-10-11 15:48:54.081399,831.2454223632812,816.3369750976562,808.6813354492188,856.6300659179688,780.879150390625
2023-10-11 15:48:54.083952,839.3040161132812,814.7252807617188,812.7106323242188,848.974365234375,804.6520385742188
2023-10-11 15:48:54.114202,823.5897216796875,814.7252807617188,819.96337890625,826.00732421875,762.7472534179688
2023-10-11 15:48:54.115258,815.1282348632812,814.3223266601562,817.5457763671875,848.5714111328125,681.3552856445312
2023-10-11 15:48:54.116703,811.5018310546875,811.098876953125,813.5164794921875,838.901123046875,664.029296875
2023-10-11 15:48:54.117949,817.94873046875,815.1282348632812,812.3076782226562,823.1868286132812,669.6703491210938
2023-10-11 15:48:54.118849,819.5604248046875,817.94873046875,816.3369750976562,833.6630249023438,782.4908447265625
2023-10-11 15:48:54.119791,807.4725341796875,811.90478515625,818.3516235351562,826.4102783203125,1091.135498046875
2023-10-11 15:48:54.120986,819.5604248046875,813.113525390625,808.6813354492188,836.886474609375,1034.3223876953125
2023-10-11 15:48:54.129302,816.7399291992188,812.7106323242188,805.054931640625,847.7655639648438,643.076904296875
2023-10-11 15:48:54.130712,817.1428833007812,813.113525390625,804.2490844726562,847.7655639648438,664.4322509765625
2023-10-11 15:48:54.132171,821.1721801757812,815.1282348632812,805.8607788085938,832.8571166992188,893.2966918945312
2023-10-11 15:48:54.133921,823.99267578125,809.084228515625,810.6959838867188,809.084228515625,888.8644409179688
2023-10-11 15:48:54.135245,825.6043701171875,807.069580078125,811.5018310546875,821.5750732421875,711.97802734375
2023-10-11 15:48:54.137396,803.040283203125,812.3076782226562,812.3076782226562,811.098876953125,658.7911987304688
2023-10-11 15:48:54.138787,805.054931640625,813.91943359375,816.7399291992188,816.7399291992188,719.6337280273438
2023-10-11 15:48:54.139984,822.7838745117188,819.5604248046875,809.4871826171875,840.10986328125,831.2454223632812
2023-10-11 15:48:54.141725,811.098876953125,813.113525390625,815.1282348632812,838.09521484375,860.6593627929688
2023-10-11 15:48:54.142998,796.1904907226562,807.4725341796875,819.1575317382812,820.3662719726562,867.106201171875
2023-10-11 15:48:54.144434,771.2088012695312,808.2783813476562,819.1575317382812,785.7142944335938,856.6300659179688
2023-10-11 15:48:54.145796,800.2197875976562,806.6666870117188,813.5164794921875,795.7875366210938,771.2088012695312
2023-10-11 15:48:54.150471,816.3369750976562,809.89013671875,807.87548828125,802.2344360351562,824.3956298828125
2023-10-11 15:48:54.153161,803.040283203125,807.069580078125,815.93408203125,810.6959838867188,969.8534545898438
2023-10-11 15:48:54.155213,794.1758422851562,807.87548828125,820.3662719726562,815.93408203125,977.5091552734375
2023-10-11 15:48:54.157779,774.4322509765625,812.7106323242188,816.7399291992188,787.3259887695312,661.2088012695312
2023-10-11 15:48:54.159373,774.029296875,813.113525390625,809.084228515625,799.4139404296875,595.1282348632812
2023-10-11 15:48:54.192168,799.4139404296875,816.7399291992188,805.4578857421875,811.5018310546875,772.8204956054688
2023-10-11 15:48:54.193470,811.098876953125,817.1428833007812,807.4725341796875,813.113525390625,859.4505615234375
2023-10-11 15:48:54.194861,794.1758422851562,816.7399291992188,805.4578857421875,800.2197875976562,744.2124633789062
2023-10-11 15:48:54.195974,794.981689453125,821.5750732421875,799.8168334960938,803.040283203125,629.3773193359375
2023-10-11 15:48:54.197172,791.3552856445312,815.93408203125,802.2344360351562,804.2490844726562,658.3883056640625
2023-10-11 15:48:54.198386,798.6080322265625,816.7399291992188,794.981689453125,796.1904907226562,831.6483764648438
2023-10-11 15:48:54.200315,812.3076782226562,818.3516235351562,792.1611938476562,815.1282348632812,948.901123046875
2023-10-11 15:48:54.202635,790.1465454101562,812.7106323242188,801.8314819335938,782.087890625,871.5384521484375
2023-10-11 15:48:54.206449,768.3883056640625,813.5164794921875,813.91943359375,752.2710571289062,886.0439453125
2023-10-11 15:48:54.220700,801.8314819335938,821.97802734375,801.4285888671875,804.6520385742188,812.7106323242188
2023-10-11 15:48:54.222220,817.1428833007812,821.1721801757812,800.2197875976562,825.2014770507812,709.1575317382812
2023-10-11 15:48:54.224592,808.6813354492188,816.7399291992188,809.4871826171875,810.2930297851562,867.106201171875
2023-10-11 15:48:54.250050,788.1318969726562,819.5604248046875,805.4578857421875,791.3552856445312,903.3699340820312
2023-10-11 15:48:54.251572,793.7728881835938,825.6043701171875,800.6226806640625,794.5787353515625,700.2930297851562
2023-10-11 15:48:54.252968,795.7875366210938,828.4249267578125,799.4139404296875,788.5347900390625,603.1868286132812
2023-10-11 15:48:54.254514,778.4615478515625,822.7838745117188,801.025634765625,773.2234497070312,738.5714111328125
2023-10-11 15:48:54.255963,807.069580078125,822.3809814453125,796.5933837890625,788.5347900390625,874.7619018554688
2023-10-11 15:48:54.257470,818.3516235351562,825.6043701171875,795.3846435546875,811.098876953125,928.3516235351562
2023-10-11 15:48:54.258837,799.4139404296875,825.6043701171875,800.6226806640625,796.996337890625,819.96337890625
2023-10-11 15:48:54.260180,801.8314819335938,821.1721801757812,803.8461303710938,790.952392578125,749.4505615234375
2023-10-11 15:48:54.261329,799.4139404296875,818.3516235351562,807.069580078125,804.2490844726562,896.1171875
2023-10-11 15:48:54.262521,785.3113403320312,817.5457763671875,806.2637329101562,804.2490844726562,896.923095703125
2023-10-11 15:48:54.263652,794.1758422851562,817.5457763671875,803.8461303710938,787.7289428710938,838.901123046875
2023-10-11 15:48:54.264933,789.3406372070312,819.5604248046875,804.6520385742188,776.8497924804688,797.8021850585938
2023-10-11 15:48:54.292238,770.0,819.5604248046875,802.2344360351562,777.6557006835938,692.2344360351562
2023-10-11 15:48:54.293599,785.7142944335938,818.3516235351562,805.8607788085938,796.996337890625,636.2271118164062
2023-10-11 15:48:54.295693,808.6813354492188,819.5604248046875,805.054931640625,803.4432373046875,796.5933837890625
2023-10-11 15:48:54.297358,791.7582397460938,818.3516235351562,796.1904907226562,777.6557006835938,856.6300659179688
2023-10-11 15:48:54.298499,755.4945068359375,811.5018310546875,803.8461303710938,755.091552734375,692.6373901367188
2023-10-11 15:48:54.300010,763.5531005859375,813.91943359375,811.098876953125,785.7142944335938,630.989013671875
2023-10-11 15:48:54.301645,804.6520385742188,823.5897216796875,805.8607788085938,819.96337890625,714.7985229492188
2023-10-11 15:48:54.302825,813.91943359375,823.1868286132812,806.6666870117188,814.7252807617188,959.3773193359375
2023-10-11 15:48:54.304647,808.6813354492188,818.3516235351562,808.6813354492188,815.93408203125,1020.2197875976562
2023-10-11 15:48:54.306033,790.5494384765625,820.3662719726562,807.4725341796875,797.8021850585938,711.1721801757812
2023-10-11 15:48:54.307603,771.2088012695312,818.3516235351562,808.2783813476562,785.7142944335938,600.3662719726562
2023-10-11 15:48:54.316301,794.1758422851562,819.1575317382812,805.8607788085938,788.1318969726562,679.3406372070312
2023-10-11 15:48:54.350729,810.6959838867188,816.7399291992188,807.069580078125,797.8021850585938,836.886474609375
2023-10-11 15:48:54.352430,796.5933837890625,810.2930297851562,812.7106323242188,814.3223266601562,884.8351440429688
2023-10-11 15:48:54.353973,797.8021850585938,811.90478515625,810.2930297851562,797.3992919921875,795.3846435546875
2023-10-11 15:48:54.356244,801.4285888671875,817.1428833007812,807.069580078125,786.5201416015625,735.3479614257812
2023-10-11 15:48:54.358426,787.7289428710938,815.5311279296875,811.098876953125,802.2344360351562,693.040283203125
2023-10-11 15:48:54.360402,785.7142944335938,812.3076782226562,812.7106323242188,815.93408203125,810.2930297851562
2023-10-11 15:48:54.361934,787.3259887695312,811.098876953125,814.7252807617188,793.3699340820312,1034.7252197265625
2023-10-11 15:48:54.363648,784.5054931640625,810.6959838867188,818.3516235351562,774.8351440429688,1021.8314819335938
2023-10-11 15:48:54.365298,813.5164794921875,817.5457763671875,809.4871826171875,771.6116943359375,706.3369750976562
2023-10-11 15:48:54.367371,819.96337890625,819.1575317382812,800.2197875976562,767.5823974609375,641.4652099609375
2023-10-11 15:48:54.368726,805.4578857421875,811.5018310546875,799.4139404296875,787.7289428710938,840.915771484375
2023-10-11 15:48:54.370247,816.7399291992188,806.2637329101562,803.4432373046875,793.3699340820312,915.8607788085938
2023-10-11 15:48:54.385168,806.2637329101562,811.5018310546875,802.2344360351562,790.5494384765625,792.5640869140625
2023-10-11 15:48:54.387036,765.970703125,817.1428833007812,799.010986328125,792.5640869140625,675.7142944335938
2023-10-11 15:48:54.388583,759.120849609375,811.90478515625,802.2344360351562,805.8607788085938,659.1941528320312
2023-10-11 15:48:54.390238,784.5054931640625,813.91943359375,802.2344360351562,802.2344360351562,782.087890625
2023-10-11 15:48:54.391634,795.7875366210938,826.4102783203125,794.981689453125,796.1904907226562,911.025634765625
2023-10-11 15:48:54.393343,783.6996459960938,826.00732421875,789.7435913085938,798.6080322265625,877.5823974609375
2023-10-11 15:48:54.394634,753.4798583984375,822.3809814453125,790.5494384765625,798.2051391601562,934.3956298828125
2023-10-11 15:48:54.396228,747.8388061523438,832.05126953125,790.1465454101562,791.3552856445312,894.5054931640625
2023-10-11 15:48:54.397737,782.087890625,835.6776733398438,785.7142944335938,776.0439453125,722.8571166992188
2023-10-11 15:48:54.399297,803.8461303710938,835.6776733398438,784.5054931640625,772.4176025390625,828.8278198242188
2023-10-11 15:48:54.401042,783.6996459960938,835.2747192382812,786.923095703125,768.7911987304688,899.7435913085938
2023-10-11 15:48:54.402504,779.2673950195312,830.4395751953125,788.937744140625,751.062255859375,730.10986328125
2023-10-11 15:48:54.455027,790.1465454101562,825.6043701171875,792.1611938476562,759.9267578125,606.4102783203125
2023-10-11 15:48:54.465815,794.1758422851562,826.00732421875,795.7875366210938,786.923095703125,751.8681030273438
2023-10-11 15:48:54.467650,807.87548828125,832.4542236328125,803.4432373046875,798.6080322265625,927.1428833007812
2023-10-11 15:48:54.468992,800.6226806640625,831.2454223632812,799.4139404296875,796.1904907226562,863.076904296875
2023-10-11 15:48:54.470218,783.2966918945312,826.8131713867188,793.7728881835938,781.6849975585938,686.996337890625
2023-10-11 15:48:54.471338,783.2966918945312,829.6337280273438,795.7875366210938,765.5677490234375,726.4835205078125
2023-10-11 15:48:54.472481,793.7728881835938,827.6190185546875,795.3846435546875,790.952392578125,918.6813354492188
2023-10-11 15:48:54.473845,811.098876953125,825.2014770507812,794.981689453125,805.4578857421875,983.9560546875
2023-10-11 15:48:54.475045,803.8461303710938,824.3956298828125,796.5933837890625,798.2051391601562,885.2380981445312
2023-10-11 15:48:54.476536,790.5494384765625,822.3809814453125,801.4285888671875,794.981689453125,830.03662109375
2023-10-11 15:48:54.477991,787.3259887695312,821.97802734375,804.6520385742188,782.4908447265625,821.97802734375
2023-10-11 15:48:54.479134,788.937744140625,818.7545776367188,804.6520385742188,784.908447265625,708.7545776367188
2023-10-11 15:48:54.491052,799.8168334960938,817.94873046875,808.2783813476562,794.981689453125,819.96337890625
2023-10-11 15:48:54.492906,799.4139404296875,821.97802734375,811.098876953125,801.8314819335938,870.3296508789062
2023-10-11 15:48:54.494183,781.2820434570312,819.5604248046875,807.069580078125,792.1611938476562,738.974365234375
2023-10-11 15:48:54.495287,771.6116943359375,817.1428833007812,805.054931640625,780.879150390625,606.4102783203125
2023-10-11 15:48:54.496595,784.908447265625,818.3516235351562,805.054931640625,777.6557006835938,645.8974609375
2023-10-11 15:48:54.497818,800.6226806640625,818.7545776367188,807.87548828125,781.6849975585938,913.4432373046875
2023-10-11 15:48:54.499654,799.010986328125,819.1575317382812,806.2637329101562,782.4908447265625,989.1941528320312
2023-10-11 15:48:54.500884,780.879150390625,813.113525390625,804.6520385742188,781.2820434570312,759.5238037109375
2023-10-11 15:48:54.502105,780.0732421875,813.5164794921875,806.2637329101562,784.5054931640625,608.02197265625
2023-10-11 15:48:54.503714,808.6813354492188,820.3662719726562,806.2637329101562,789.3406372070312,865.8974609375
2023-10-11 15:48:54.505636,816.3369750976562,819.5604248046875,801.8314819335938,796.5933837890625,1015.3846435546875
2023-10-11 15:48:54.508151,803.040283203125,815.1282348632812,799.010986328125,799.8168334960938,822.3809814453125
2023-10-11 15:48:54.519357,790.952392578125,811.098876953125,802.6373901367188,789.7435913085938,751.8681030273438
2023-10-11 15:48:54.520913,786.1171875,809.4871826171875,800.2197875976562,771.6116943359375,700.2930297851562
2023-10-11 15:48:54.522213,783.6996459960938,809.4871826171875,797.8021850585938,778.4615478515625,654.7619018554688
2023-10-11 15:48:54.539141,792.1611938476562,812.3076782226562,796.996337890625,792.1611938476562,753.076904296875
2023-10-11 15:48:54.540689,802.2344360351562,817.5457763671875,796.996337890625,788.937744140625,907.3992919921875
2023-10-11 15:48:54.541977,792.1611938476562,817.5457763671875,801.4285888671875,783.2966918945312,939.6337280273438
2023-10-11 15:48:54.543342,784.5054931640625,817.94873046875,802.6373901367188,788.937744140625,797.3992919921875
2023-10-11 15:48:54.545014,794.1758422851562,818.7545776367188,797.8021850585938,797.3992919921875,671.6849975585938
2023-10-11 15:48:54.546653,806.2637329101562,820.3662719726562,793.3699340820312,791.3552856445312,887.2527465820312
2023-10-11 15:48:54.549104,807.069580078125,821.1721801757812,792.967041015625,778.4615478515625,1074.6153564453125
2023-10-11 15:48:54.553468,790.952392578125,820.7692260742188,795.3846435546875,778.4615478515625,782.087890625
2023-10-11 15:48:54.555532,784.1025390625,819.1575317382812,796.5933837890625,776.8497924804688,553.2234497070312
2023-10-11 15:48:54.586329,789.7435913085938,821.1721801757812,793.7728881835938,775.2380981445312,694.6520385742188
2023-10-11 15:48:54.587477,801.025634765625,823.1868286132812,790.5494384765625,782.893798828125,833.2600708007812
2023-10-11 15:48:54.588867,803.040283203125,819.1575317382812,793.3699340820312,786.1171875,809.4871826171875
2023-10-11 15:48:54.590185,793.7728881835938,816.3369750976562,799.4139404296875,782.4908447265625,780.0732421875
2023-10-11 15:48:54.591761,782.087890625,815.5311279296875,800.6226806640625,779.6703491210938,674.5054931640625
2023-10-11 15:48:54.593361,781.6849975585938,815.5311279296875,803.040283203125,781.2820434570312,672.4908447265625
2023-10-11 15:48:54.595010,789.3406372070312,813.91943359375,804.2490844726562,790.5494384765625,835.6776733398438
2023-10-11 15:48:54.596315,790.1465454101562,815.93408203125,802.2344360351562,795.7875366210938,895.7142944335938
2023-10-11 15:48:54.597714,785.3113403320312,815.1282348632812,800.6226806640625,786.923095703125,990.0
2023-10-11 15:48:54.599064,778.4615478515625,817.1428833007812,800.6226806640625,776.8497924804688,894.1025390625
2023-10-11 15:48:54.601793,775.6410522460938,821.97802734375,802.2344360351562,776.0439453125,614.06591796875
2023-10-11 15:48:54.603285,788.5347900390625,817.94873046875,801.025634765625,778.05859375,696.2637329101562
2023-10-11 15:48:54.619637,796.1904907226562,813.113525390625,800.6226806640625,788.937744140625,860.2564086914062
2023-10-11 15:48:54.621611,790.1465454101562,813.91943359375,803.8461303710938,796.996337890625,778.4615478515625
2023-10-11 15:48:54.623510,785.3113403320312,815.1282348632812,807.87548828125,798.6080322265625,650.7326049804688
2023-10-11 15:48:54.625428,788.5347900390625,815.93408203125,808.2783813476562,798.2051391601562,695.8607788085938
2023-10-11 15:48:54.626549,799.8168334960938,818.3516235351562,807.87548828125,796.1904907226562,810.2930297851562
2023-10-11 15:48:54.633825,801.4285888671875,815.1282348632812,809.084228515625,799.8168334960938,977.106201171875
2023-10-11 15:48:54.636329,797.3992919921875,816.3369750976562,808.6813354492188,808.6813354492188,945.2747192382812
2023-10-11 15:48:54.638121,789.7435913085938,815.93408203125,809.4871826171875,805.4578857421875,809.084228515625
2023-10-11 15:48:54.640287,781.6849975585938,815.1282348632812,807.069580078125,791.3552856445312,832.05126953125
2023-10-11 15:48:54.641787,784.908447265625,814.7252807617188,802.2344360351562,782.087890625,748.6447143554688
2023-10-11 15:48:54.643000,796.5933837890625,810.6959838867188,804.6520385742188,787.7289428710938,790.1465454101562
2023-10-11 15:48:54.644377,796.5933837890625,812.3076782226562,810.2930297851562,792.5640869140625,859.047607421875
2023-10-11 15:48:54.661729,785.7142944335938,809.4871826171875,806.6666870117188,790.1465454101562,763.1502075195312
2023-10-11 15:48:54.663868,784.908447265625,805.4578857421875,801.025634765625,789.3406372070312,655.970703125
2023-10-11 15:48:54.666205,794.981689453125,807.4725341796875,802.6373901367188,794.1758422851562,700.2930297851562
2023-10-11 15:48:54.668256,803.8461303710938,809.4871826171875,803.040283203125,795.3846435546875,846.5567626953125
2023-10-11 15:48:54.671479,799.010986328125,811.5018310546875,799.010986328125,790.5494384765625,882.4176025390625
2023-10-11 15:48:54.672644,785.7142944335938,813.113525390625,795.3846435546875,790.1465454101562,812.7106323242188
2023-10-11 15:48:54.674150,778.8644409179688,815.1282348632812,796.1904907226562,785.7142944335938,741.7948608398438
2023-10-11 15:48:54.675413,786.1171875,814.3223266601562,799.010986328125,789.3406372070312,943.2600708007812
2023-10-11 15:48:54.676922,799.010986328125,810.2930297851562,794.5787353515625,799.8168334960938,1046.4102783203125
2023-10-11 15:48:54.678340,795.3846435546875,807.4725341796875,791.3552856445312,791.3552856445312,840.915771484375
2023-10-11 15:48:54.680254,786.923095703125,813.5164794921875,797.3992919921875,782.087890625,765.970703125
2023-10-11 15:48:54.681602,786.1171875,819.96337890625,798.6080322265625,788.1318969726562,739.3773193359375
2023-10-11 15:48:54.719676,791.7582397460938,813.91943359375,789.7435913085938,782.893798828125,699.084228515625
2023-10-11 15:48:54.721419,802.2344360351562,810.2930297851562,789.3406372070312,785.7142944335938,749.8534545898438
2023-10-11 15:48:54.722951,805.8607788085938,817.5457763671875,793.3699340820312,790.1465454101562,871.94140625
2023-10-11 15:48:54.724543,794.1758422851562,818.3516235351562,796.996337890625,788.937744140625,801.8314819335938
2023-10-11 15:48:54.726178,786.1171875,810.2930297851562,800.2197875976562,793.3699340820312,634.6153564453125
2023-10-11 15:48:54.727807,794.1758422851562,808.2783813476562,798.6080322265625,798.2051391601562,675.7142944335938
2023-10-11 15:48:54.728795,803.040283203125,809.084228515625,801.8314819335938,805.054931640625,962.6007080078125
2023-10-11 15:48:54.733237,802.6373901367188,809.89013671875,802.2344360351562,806.6666870117188,1078.6446533203125
2023-10-11 15:48:54.734320,793.3699340820312,814.3223266601562,796.5933837890625,801.8314819335938,899.7435913085938
2023-10-11 15:48:54.735719,785.3113403320312,815.1282348632812,798.6080322265625,792.967041015625,691.4285888671875
2023-10-11 15:48:54.736865,785.7142944335938,813.5164794921875,801.4285888671875,794.1758422851562,699.89013671875
2023-10-11 15:48:54.738055,801.4285888671875,814.3223266601562,799.4139404296875,797.3992919921875,844.945068359375
2023-10-11 15:48:54.759395,805.8607788085938,815.5311279296875,802.6373901367188,803.040283203125,830.4395751953125
2023-10-11 15:48:54.760558,799.4139404296875,819.1575317382812,804.6520385742188,809.89013671875,776.4468994140625
2023-10-11 15:48:54.761716,792.5640869140625,819.96337890625,801.8314819335938,798.6080322265625,676.1171875
2023-10-11 15:48:54.763062,785.7142944335938,814.7252807617188,799.8168334960938,792.5640869140625,652.3442993164062
2023-10-11 15:48:54.764519,798.2051391601562,812.7106323242188,797.3992919921875,799.4139404296875,734.5421142578125
2023-10-11 15:48:54.765781,807.4725341796875,810.2930297851562,798.2051391601562,802.6373901367188,866.3003540039062
2023-10-11 15:48:54.767741,800.2197875976562,809.89013671875,802.6373901367188,804.6520385742188,1054.06591796875
2023-10-11 15:48:54.769192,787.3259887695312,807.4725341796875,803.4432373046875,804.2490844726562,873.5531005859375
2023-10-11 15:48:54.772024,780.4761962890625,807.87548828125,801.8314819335938,807.4725341796875,572.1611938476562
2023-10-11 15:48:54.773741,788.937744140625,813.113525390625,808.6813354492188,812.3076782226562,757.912109375
2023-10-11 15:48:54.775480,799.8168334960938,813.5164794921875,811.90478515625,817.5457763671875,909.4139404296875
2023-10-11 15:48:54.777247,794.5787353515625,813.91943359375,807.069580078125,819.96337890625,888.05859375
2023-10-11 15:48:54.812704,776.4468994140625,813.91943359375,803.8461303710938,809.4871826171875,691.025634765625
2023-10-11 15:48:54.813611,772.8204956054688,810.6959838867188,803.040283203125,808.6813354492188,622.5274658203125
2023-10-11 15:48:54.814475,786.923095703125,811.90478515625,807.069580078125,818.7545776367188,804.2490844726562
2023-10-11 15:48:54.815289,805.4578857421875,814.7252807617188,811.5018310546875,821.97802734375,851.7948608398438
2023-10-11 15:48:54.816179,798.6080322265625,811.098876953125,807.4725341796875,811.098876953125,778.05859375
2023-10-11 15:48:54.816998,778.05859375,808.2783813476562,806.2637329101562,800.6226806640625,823.99267578125
2023-10-11 15:48:54.820393,775.2380981445312,811.098876953125,809.084228515625,801.8314819335938,831.6483764648438
2023-10-11 15:48:54.822964,782.4908447265625,814.7252807617188,806.6666870117188,807.069580078125,732.5274658203125
2023-10-11 15:48:54.824978,796.1904907226562,815.5311279296875,807.4725341796875,813.91943359375,779.2673950195312
2023-10-11 15:48:54.831763,802.6373901367188,811.90478515625,813.113525390625,813.5164794921875,932.7838745117188
2023-10-11 15:48:54.832911,790.952392578125,810.2930297851562,815.5311279296875,803.8461303710938,902.967041015625
2023-10-11 15:48:54.835746,782.4908447265625,811.5018310546875,808.2783813476562,799.010986328125,669.6703491210938
2023-10-11 15:48:54.870489,791.7582397460938,809.084228515625,804.2490844726562,805.054931640625,679.7435913085938
2023-10-11 15:48:54.871877,804.2490844726562,809.084228515625,807.4725341796875,809.89013671875,905.7875366210938
2023-10-11 15:48:54.873352,800.6226806640625,808.2783813476562,806.6666870117188,799.4139404296875,994.029296875
2023-10-11 15:48:54.875280,787.7289428710938,807.069580078125,804.6520385742188,796.1904907226562,776.0439453125
2023-10-11 15:48:54.876812,785.3113403320312,806.2637329101562,804.6520385742188,800.6226806640625,627.7655639648438
2023-10-11 15:48:54.878300,793.7728881835938,805.4578857421875,802.6373901367188,801.025634765625,891.6849975585938
2023-10-11 15:48:54.879721,799.010986328125,805.4578857421875,798.6080322265625,801.8314819335938,1048.4249267578125
2023-10-11 15:48:54.881428,799.4139404296875,806.6666870117188,798.6080322265625,804.2490844726562,863.076904296875
2023-10-11 15:48:54.883238,787.3259887695312,808.2783813476562,801.025634765625,796.5933837890625,777.6557006835938
2023-10-11 15:48:54.884710,784.1025390625,810.6959838867188,799.4139404296875,793.3699340820312,738.1685180664062
2023-10-11 15:48:54.886331,793.7728881835938,809.4871826171875,794.981689453125,796.996337890625,698.6813354492188
2023-10-11 15:48:54.888186,801.8314819335938,804.6520385742188,792.1611938476562,790.5494384765625,758.7179565429688
2023-10-11 15:48:54.903242,808.2783813476562,806.6666870117188,795.7875366210938,788.937744140625,868.7179565429688
2023-10-11 15:48:54.905321,804.2490844726562,812.3076782226562,795.7875366210938,792.967041015625,826.00732421875
2023-10-11 15:48:54.906494,799.010986328125,814.3223266601562,793.3699340820312,783.2966918945312,685.3846435546875
2023-10-11 15:48:54.907691,806.2637329101562,813.91943359375,794.981689453125,777.2527465820312,634.2124633789062
2023-10-11 15:48:54.909327,815.93408203125,813.91943359375,798.2051391601562,785.3113403320312,861.8681030273438
2023-10-11 15:48:54.910440,815.1282348632812,811.098876953125,798.2051391601562,794.1758422851562,1019.4139404296875
2023-10-11 15:48:54.911587,796.1904907226562,806.6666870117188,796.996337890625,795.7875366210938,887.6557006835938
2023-10-11 15:48:54.912505,776.8497924804688,804.6520385742188,798.2051391601562,797.3992919921875,714.3956298828125
2023-10-11 15:48:54.913335,772.8204956054688,809.084228515625,797.3992919921875,803.8461303710938,700.2930297851562
2023-10-11 15:48:54.914177,778.8644409179688,811.90478515625,795.7875366210938,812.3076782226562,939.2307739257812
2023-10-11 15:48:54.915006,785.3113403320312,810.6959838867188,796.996337890625,814.3223266601562,900.952392578125
2023-10-11 15:48:54.920817,775.6410522460938,804.2490844726562,801.025634765625,800.6226806640625,771.2088012695312
2023-10-11 15:48:54.935737,767.1795043945312,808.2783813476562,805.4578857421875,795.7875366210938,709.5604248046875
2023-10-11 15:48:54.936963,772.4176025390625,813.113525390625,808.2783813476562,799.010986328125,672.4908447265625
2023-10-11 15:48:54.938021,782.893798828125,807.87548828125,805.4578857421875,793.3699340820312,732.930419921875
2023-10-11 15:48:54.939063,793.3699340820312,811.5018310546875,805.054931640625,796.1904907226562,841.3186645507812
2023-10-11 15:48:54.940072,786.5201416015625,809.4871826171875,804.2490844726562,793.3699340820312,827.2161254882812
2023-10-11 15:48:54.941177,774.029296875,802.2344360351562,803.040283203125,778.05859375,768.3883056640625
2023-10-11 15:48:54.942392,774.029296875,804.2490844726562,806.2637329101562,780.4761962890625,711.5750732421875
2023-10-11 15:48:54.943911,786.5201416015625,808.6813354492188,805.8607788085938,794.1758422851562,762.7472534179688
2023-10-11 15:48:54.945902,796.1904907226562,808.2783813476562,806.2637329101562,803.040283203125,1064.13916015625
2023-10-11 15:48:54.947291,788.937744140625,807.4725341796875,806.2637329101562,798.2051391601562,1032.7105712890625
2023-10-11 15:48:54.948856,775.2380981445312,807.4725341796875,805.054931640625,787.7289428710938,666.8497924804688
2023-10-11 15:48:54.950498,776.0439453125,805.054931640625,807.4725341796875,788.1318969726562,600.3662719726562
2023-10-11 15:48:55.003367,787.3259887695312,801.8314819335938,805.8607788085938,795.3846435546875,797.8021850585938
2023-10-11 15:48:55.005253,796.5933837890625,802.6373901367188,803.4432373046875,797.3992919921875,870.3296508789062
2023-10-11 15:48:55.007135,794.981689453125,801.8314819335938,806.6666870117188,796.5933837890625,800.2197875976562
2023-10-11 15:48:55.008869,785.7142944335938,802.2344360351562,810.2930297851562,797.3992919921875,784.1025390625
2023-10-11 15:48:55.010246,785.7142944335938,803.8461303710938,807.87548828125,796.1904907226562,735.3479614257812
2023-10-11 15:48:55.012717,790.1465454101562,799.4139404296875,802.2344360351562,789.7435913085938,722.8571166992188
2023-10-11 15:48:55.013768,792.5640869140625,800.2197875976562,804.6520385742188,791.7582397460938,828.4249267578125
2023-10-11 15:48:55.014753,792.5640869140625,801.8314819335938,809.4871826171875,799.8168334960938,954.1392211914062
2023-10-11 15:48:55.015757,788.937744140625,803.040283203125,810.2930297851562,798.2051391601562,906.996337890625
2023-10-11 15:48:55.016762,784.1025390625,800.6226806640625,810.6959838867188,794.1758422851562,668.05859375
2023-10-11 15:48:55.018057,785.7142944335938,796.996337890625,805.4578857421875,794.1758422851562,690.6226806640625
2023-10-11 15:48:55.019220,796.996337890625,800.2197875976562,801.8314819335938,799.8168334960938,895.3113403320312
2023-10-11 15:48:55.038210,799.010986328125,802.6373901367188,804.2490844726562,805.054931640625,897.7289428710938
2023-10-11 15:48:55.043803,793.7728881835938,806.2637329101562,809.084228515625,805.4578857421875,695.054931640625
2023-10-11 15:48:55.047279,789.7435913085938,808.6813354492188,809.084228515625,802.6373901367188,607.6190185546875
2023-10-11 15:48:55.049085,788.5347900390625,802.6373901367188,806.2637329101562,799.4139404296875,695.4578857421875
2023-10-11 15:48:55.050562,796.5933837890625,801.4285888671875,802.6373901367188,803.040283203125,862.2710571289062
2023-10-11 15:48:55.052460,801.4285888671875,803.8461303710938,800.2197875976562,809.084228515625,948.4981689453125
2023-10-11 15:48:55.054080,788.5347900390625,801.4285888671875,802.2344360351562,797.8021850585938,809.4871826171875
2023-10-11 15:48:55.055458,782.087890625,801.025634765625,800.2197875976562,790.1465454101562,796.996337890625
2023-10-11 15:48:55.056983,789.3406372070312,800.6226806640625,800.6226806640625,797.3992919921875,813.5164794921875
2023-10-11 15:48:55.058327,800.2197875976562,802.6373901367188,803.8461303710938,805.8607788085938,736.1538696289062
2023-10-11 15:48:55.059900,809.89013671875,807.069580078125,806.2637329101562,811.90478515625,861.4652099609375
2023-10-11 15:48:55.061703,800.6226806640625,803.8461303710938,803.8461303710938,802.6373901367188,805.8607788085938
2023-10-11 15:48:55.105150,791.7582397460938,801.4285888671875,797.3992919921875,785.3113403320312,612.4542236328125
2023-10-11 15:48:55.106216,794.981689453125,805.8607788085938,795.3846435546875,780.0732421875,657.5823974609375
2023-10-11 15:48:55.107454,802.2344360351562,804.2490844726562,796.1904907226562,786.923095703125,875.5677490234375
2023-10-11 15:48:55.108707,801.8314819335938,804.2490844726562,797.8021850585938,792.1611938476562,979.9267578125
2023-10-11 15:48:55.109758,791.3552856445312,804.2490844726562,799.4139404296875,796.996337890625,781.2820434570312
2023-10-11 15:48:55.110800,787.3259887695312,803.8461303710938,800.6226806640625,790.1465454101562,660.0
2023-10-11 15:48:55.111980,792.5640869140625,806.6666870117188,802.2344360351562,789.3406372070312,820.7692260742188
2023-10-11 15:48:55.114387,803.4432373046875,804.6520385742188,804.2490844726562,805.8607788085938,995.6410522460938
2023-10-11 15:48:55.115848,810.6959838867188,804.6520385742188,801.025634765625,808.2783813476562,898.937744140625
2023-10-11 15:48:55.121843,803.4432373046875,804.2490844726562,795.7875366210938,799.010986328125,745.4212646484375
2023-10-11 15:48:55.125251,793.7728881835938,801.4285888671875,794.1758422851562,788.5347900390625,669.6703491210938
2023-10-11 15:48:55.126580,794.1758422851562,799.8168334960938,794.1758422851562,788.1318969726562,629.7802124023438
2023-10-11 15:48:55.135481,800.6226806640625,800.6226806640625,792.5640869140625,798.2051391601562,714.3956298828125
2023-10-11 15:48:55.137253,802.6373901367188,802.6373901367188,796.1904907226562,803.4432373046875,863.076904296875
2023-10-11 15:48:55.139097,794.5787353515625,802.6373901367188,798.6080322265625,799.8168334960938,840.5128173828125
2023-10-11 15:48:55.148774,791.7582397460938,804.6520385742188,795.7875366210938,796.5933837890625,753.8828125
2023-10-11 15:48:55.150619,795.3846435546875,804.6520385742188,798.6080322265625,795.7875366210938,715.2014770507812
2023-10-11 15:48:55.152474,799.4139404296875,803.8461303710938,798.2051391601562,796.996337890625,799.4139404296875
2023-10-11 15:48:55.153936,799.010986328125,802.2344360351562,795.7875366210938,797.3992919921875,1149.5604248046875
2023-10-11 15:48:55.155331,794.981689453125,800.6226806640625,798.2051391601562,795.3846435546875,1090.7325439453125
2023-10-11 15:48:55.157153,787.7289428710938,801.8314819335938,803.040283203125,793.7728881835938,693.040283203125
2023-10-11 15:48:55.158753,781.6849975585938,802.2344360351562,804.6520385742188,796.1904907226562,636.6300659179688
2023-10-11 15:48:55.161176,788.1318969726562,799.8168334960938,803.040283203125,797.8021850585938,784.5054931640625
2023-10-11 15:48:55.162786,796.5933837890625,797.3992919921875,801.025634765625,793.3699340820312,859.8534545898438
2023-10-11 15:48:55.203674,788.1318969726562,798.6080322265625,800.6226806640625,788.5347900390625,815.1282348632812
2023-10-11 15:48:55.206184,780.4761962890625,799.4139404296875,803.8461303710938,790.5494384765625,734.5421142578125
2023-10-11 15:48:55.208101,782.4908447265625,799.8168334960938,801.4285888671875,788.1318969726562,654.7619018554688
2023-10-11 15:48:55.209849,781.2820434570312,797.8021850585938,796.996337890625,784.908447265625,708.7545776367188
2023-10-11 15:48:55.211321,785.7142944335938,791.3552856445312,796.1904907226562,790.5494384765625,821.5750732421875
2023-10-11 15:48:55.212793,790.5494384765625,793.3699340820312,797.3992919921875,796.5933837890625,977.912109375
2023-10-11 15:48:55.214527,778.4615478515625,795.7875366210938,799.8168334960938,794.1758422851562,991.2088012695312
2023-10-11 15:48:55.215837,773.6264038085938,794.5787353515625,797.8021850585938,788.937744140625,767.9853515625
2023-10-11 15:48:55.217720,785.7142944335938,798.2051391601562,796.996337890625,796.5933837890625,690.6226806640625
2023-10-11 15:48:55.219344,798.2051391601562,799.4139404296875,801.025634765625,810.6959838867188,898.1318969726562
2023-10-11 15:48:55.220722,798.6080322265625,794.981689453125,799.4139404296875,810.6959838867188,1053.2601318359375
2023-10-11 15:48:55.222383,781.2820434570312,791.7582397460938,794.5787353515625,797.3992919921875,760.3296508789062
2023-10-11 15:48:55.234930,775.2380981445312,788.5347900390625,801.025634765625,790.952392578125,572.1611938476562
2023-10-11 15:48:55.236811,785.7142944335938,792.967041015625,804.2490844726562,800.2197875976562,662.0146484375
2023-10-11 15:48:55.237952,794.1758422851562,798.6080322265625,803.4432373046875,804.6520385742188,807.4725341796875
2023-10-11 15:48:55.239094,796.5933837890625,800.6226806640625,803.4432373046875,796.1904907226562,822.7838745117188
2023-10-11 15:48:55.240775,789.3406372070312,802.6373901367188,803.040283203125,799.010986328125,709.1575317382812
2023-10-11 15:48:55.251610,781.2820434570312,800.2197875976562,804.6520385742188,800.6226806640625,719.6337280273438
2023-10-11 15:48:55.254195,786.1171875,794.981689453125,801.8314819335938,799.010986328125,801.4285888671875
2023-10-11 15:48:55.256572,797.8021850585938,793.3699340820312,797.3992919921875,802.2344360351562,819.5604248046875
2023-10-11 15:48:55.259913,799.4139404296875,796.996337890625,802.2344360351562,803.8461303710938,784.5054931640625
2023-10-11 15:48:55.261077,785.3113403320312,799.8168334960938,808.6813354492188,803.4432373046875,960.989013671875
2023-10-11 15:48:55.262316,774.029296875,794.1758422851562,806.2637329101562,794.981689453125,896.5201416015625
2023-10-11 15:48:55.263723,781.2820434570312,790.952392578125,806.6666870117188,799.010986328125,624.1392211914062
2023-10-11 15:48:55.272953,796.996337890625,798.2051391601562,809.084228515625,815.93408203125,794.1758422851562
2023-10-11 15:48:55.274354,801.4285888671875,805.8607788085938,806.6666870117188,814.7252807617188,901.3552856445312
2023-10-11 15:48:55.275765,794.1758422851562,807.069580078125,805.8607788085938,809.084228515625,779.2673950195312
2023-10-11 15:48:55.277239,787.7289428710938,806.2637329101562,807.4725341796875,806.2637329101562,649.5238037109375
2023-10-11 15:48:55.280459,799.8168334960938,806.2637329101562,804.2490844726562,801.8314819335938,713.5897216796875
2023-10-11 15:48:55.281860,810.6959838867188,805.4578857421875,802.2344360351562,802.2344360351562,909.4139404296875
2023-10-11 15:48:55.283171,809.084228515625,807.4725341796875,801.4285888671875,811.90478515625,981.1355590820312
2023-10-11 15:48:55.284425,794.981689453125,806.2637329101562,799.010986328125,804.6520385742188,812.7106323242188
2023-10-11 15:48:55.286284,784.5054931640625,806.6666870117188,801.8314819335938,790.5494384765625,739.3773193359375
2023-10-11 15:48:55.288489,791.7582397460938,806.6666870117188,805.4578857421875,796.996337890625,853.4066162109375
2023-10-11 15:48:55.289897,794.981689453125,801.4285888671875,801.8314819335938,794.981689453125,823.99267578125
2023-10-11 15:48:55.291395,796.1904907226562,797.8021850585938,799.8168334960938,795.3846435546875,850.989013671875
2023-10-11 15:48:55.335861,793.7728881835938,796.996337890625,802.6373901367188,795.7875366210938,919.4871826171875
2023-10-11 15:48:55.337657,780.0732421875,797.8021850585938,799.010986328125,781.6849975585938,757.106201171875
2023-10-11 15:48:55.338880,776.8497924804688,796.5933837890625,794.981689453125,776.0439453125,614.06591796875
2023-10-11 15:48:55.340217,788.1318969726562,794.981689453125,796.1904907226562,784.1025390625,732.12451171875
2023-10-11 15:48:55.341742,792.1611938476562,794.1758422851562,793.7728881835938,792.5640869140625,883.2234497070312
2023-10-11 15:48:55.343062,786.923095703125,796.1904907226562,795.7875366210938,792.5640869140625,894.908447265625
2023-10-11 15:48:55.344719,777.6557006835938,796.5933837890625,799.010986328125,788.937744140625,753.4798583984375
2023-10-11 15:48:55.351913,774.8351440429688,794.1758422851562,799.010986328125,789.7435913085938,601.5750732421875
2023-10-11 15:48:55.353981,788.937744140625,799.4139404296875,803.4432373046875,806.6666870117188,837.6923217773438
2023-10-11 15:48:55.355240,794.981689453125,801.8314819335938,803.4432373046875,807.4725341796875,1009.3406372070312
2023-10-11 15:48:55.356498,789.7435913085938,796.5933837890625,801.025634765625,795.7875366210938,789.3406372070312
2023-10-11 15:48:55.358012,778.4615478515625,795.3846435546875,799.010986328125,789.7435913085938,689.010986328125
2023-10-11 15:48:55.368428,767.9853515625,793.7728881835938,796.1904907226562,784.5054931640625,639.4505615234375
2023-10-11 15:48:55.370405,774.4322509765625,794.981689453125,799.4139404296875,786.5201416015625,681.7582397460938
2023-10-11 15:48:55.372305,784.1025390625,796.5933837890625,799.010986328125,795.7875366210938,832.4542236328125
2023-10-11 15:48:55.374211,785.7142944335938,796.5933837890625,798.2051391601562,796.996337890625,946.4835205078125
2023-10-11 15:48:55.377295,779.6703491210938,801.4285888671875,803.040283203125,788.5347900390625,855.018310546875
2023-10-11 15:48:55.378353,776.4468994140625,802.2344360351562,803.040283203125,785.3113403320312,720.4395751953125
2023-10-11 15:48:55.381307,781.2820434570312,799.4139404296875,798.6080322265625,786.5201416015625,730.5128173828125
2023-10-11 15:48:55.383818,790.952392578125,799.010986328125,796.996337890625,795.3846435546875,897.7289428710938
2023-10-11 15:48:55.386620,792.967041015625,799.4139404296875,796.996337890625,793.3699340820312,1036.3370361328125
2023-10-11 15:48:55.390758,786.1171875,800.6226806640625,796.996337890625,786.1171875,791.7582397460938
2023-10-11 15:48:55.392422,777.2527465820312,797.8021850585938,798.6080322265625,795.7875366210938,608.8278198242188
2023-10-11 15:48:55.394550,779.2673950195312,794.981689453125,796.1904907226562,795.7875366210938,696.2637329101562
2023-10-11 15:48:55.402050,792.5640869140625,792.967041015625,793.7728881835938,796.5933837890625,822.3809814453125
2023-10-11 15:48:55.403381,797.8021850585938,792.967041015625,796.5933837890625,797.8021850585938,836.4835205078125
2023-10-11 15:48:55.404783,793.3699340820312,799.8168334960938,797.8021850585938,788.5347900390625,755.8974609375
2023-10-11 15:48:55.406095,786.923095703125,803.040283203125,797.3992919921875,789.7435913085938,672.893798828125
2023-10-11 15:48:55.410063,785.3113403320312,805.054931640625,798.2051391601562,795.3846435546875,685.3846435546875
2023-10-11 15:48:55.411413,800.2197875976562,801.025634765625,797.8021850585938,785.7142944335938,842.12451171875
2023-10-11 15:48:55.412926,806.6666870117188,797.3992919921875,796.5933837890625,776.0439453125,929.5604248046875
2023-10-11 15:48:55.414124,788.1318969726562,799.010986328125,795.3846435546875,774.4322509765625,1070.18310546875
2023-10-11 15:48:55.415255,778.05859375,799.010986328125,794.981689453125,776.8497924804688,930.7692260742188
2023-10-11 15:48:55.425509,786.923095703125,798.6080322265625,799.010986328125,778.4615478515625,633.4066162109375
2023-10-11 15:48:55.427004,805.8607788085938,801.4285888671875,803.040283203125,779.2673950195312,766.3735961914062
2023-10-11 15:48:55.429479,816.3369750976562,799.010986328125,797.3992919921875,779.6703491210938,919.4871826171875
2023-10-11 15:48:55.470147,804.2490844726562,797.3992919921875,794.981689453125,774.029296875,787.3259887695312
2023-10-11 15:48:55.471951,786.1171875,801.025634765625,800.6226806640625,781.6849975585938,613.2600708007812
2023-10-11 15:48:55.474717,788.937744140625,800.6226806640625,804.2490844726562,793.7728881835938,656.7765502929688
2023-10-11 15:48:55.475837,788.937744140625,801.025634765625,805.4578857421875,800.6226806640625,790.1465454101562
2023-10-11 15:48:55.476987,781.2820434570312,800.6226806640625,806.6666870117188,794.981689453125,865.091552734375
2023-10-11 15:48:55.478170,776.8497924804688,801.025634765625,805.8607788085938,788.5347900390625,844.5421142578125
2023-10-11 15:48:55.479725,768.3883056640625,798.2051391601562,801.8314819335938,786.5201416015625,818.3516235351562
2023-10-11 15:48:55.480715,769.5970458984375,795.3846435546875,803.040283203125,786.5201416015625,839.7069702148438
2023-10-11 15:48:55.481866,776.8497924804688,794.1758422851562,803.8461303710938,790.1465454101562,840.5128173828125
2023-10-11 15:48:55.482746,787.3259887695312,790.1465454101562,800.6226806640625,785.3113403320312,871.1355590820312
2023-10-11 15:48:55.483634,789.3406372070312,791.3552856445312,798.2051391601562,785.3113403320312,880.8058471679688
2023-10-11 15:48:55.484841,778.4615478515625,793.3699340820312,796.1904907226562,780.879150390625,771.2088012695312
2023-10-11 15:48:55.511810,777.6557006835938,790.1465454101562,794.981689453125,770.0,597.1428833007812
2023-10-11 15:48:55.513009,790.952392578125,792.1611938476562,793.7728881835938,786.1171875,656.3735961914062
2023-10-11 15:48:55.514824,807.069580078125,794.1758422851562,793.3699340820312,800.6226806640625,822.3809814453125
