Timestamp,TP9,AF7,AF8,TP10
2023-10-16 15:09:47.010991,793.8120125363023,797.0539781250837,786.8077803764293,797.2171766966982
2023-10-16 15:09:47.011227,778.0141241786432,793.686785221967,778.1944011675213,784.1969008284848
2023-10-16 15:09:47.011368,797.320092233289,797.7412116916169,782.2047100937222,799.9590266924399
2023-10-16 15:09:47.011589,788.7374096597159,796.075627847865,795.1646702163312,793.2899109353256
2023-10-16 15:09:47.011738,806.0764596501468,799.6455527647353,791.0715268903439,807.2696951729092
2023-10-16 15:09:47.012149,767.377221961694,791.4432004011467,774.9356339267601,775.4884665777142
2023-10-16 15:09:47.012277,786.0914518394069,795.349278722867,776.2292549022795,790.7079891618189
2023-10-16 15:09:47.012390,776.6663404125522,793.3729415590441,774.5968469095693,783.0204331047449
2023-10-16 15:09:47.012498,768.577679638504,791.701577739634,775.8604790969924,776.4840573912562
2023-10-16 15:09:47.012595,804.5063527184722,799.2890417196417,787.8611098701018,805.921652147106
2023-10-16 15:09:47.012696,776.1953381728622,793.4620315269249,794.7517046393093,783.1003661155605
2023-10-16 15:09:47.012829,776.2126465771786,793.4381237361121,791.7882770308064,783.046451385425
2023-10-16 15:09:47.043723,763.3113859990178,790.6633421178573,782.0630741483277,772.3517944255155
2023-10-16 15:09:47.044028,773.7510932116074,792.8242853156587,780.8395189928696,780.7973726296134
2023-10-16 15:09:47.044187,771.3635416302933,792.2002782555453,767.136572334529,778.5451943939694
2023-10-16 15:09:47.044328,763.3157216183051,790.71680151481,787.7247729481571,772.4851594394374
2023-10-16 15:09:47.044708,763.9353979335248,790.7364278883637,775.9487366802323,772.7180619534299
2023-10-16 15:09:47.045544,765.2824482147093,791.0667969498535,781.3429214987459,773.9351384117311
2023-10-16 15:09:47.046149,799.0255269875179,798.167971052251,789.9491634743719,801.520895792191
2023-10-16 15:09:47.046310,782.7108823147944,794.7617607696263,788.7159450952114,788.2504395036456
2023-10-16 15:09:47.048286,761.1342670924757,790.2695725914771,788.4454086308417,770.7310565548461
2023-10-16 15:09:47.051636,777.6842014388006,793.6355746032038,780.0731077535698,783.972197529528
2023-10-16 15:09:47.051858,761.573069780062,790.2221434573655,773.50020567452,770.7444666898524
2023-10-16 15:09:47.052023,780.058534156748,794.1967433266784,787.3031358713766,786.065195866891
2023-10-16 15:09:47.077066,786.54745028674,795.5481367658347,787.4297495374869,791.3349844047538
2023-10-16 15:09:47.077335,790.3645954910222,796.3207669281826,785.098160393142,794.3797891999895
2023-10-16 15:09:47.078418,784.6864466620341,795.1614858312518,787.4930880783681,789.8259086864508
2023-10-16 15:09:47.078608,796.4058915998529,797.5718267395425,784.4499608176914,799.2684865511487
2023-10-16 15:09:47.079378,790.4657196820096,796.3193798907532,782.6820060241752,794.4064567812112
2023-10-16 15:09:47.079549,782.0576792850931,794.5920685775181,785.0777396999382,787.6368126353353
2023-10-16 15:09:47.079655,791.4348343910613,796.6171919087726,793.0405688711838,795.4306262345698
2023-10-16 15:09:47.079758,789.1056943956811,796.1169281340922,791.3584801736439,793.5015465934616
2023-10-16 15:09:47.079857,787.8999886356421,795.9340374203708,798.6830267466217,792.6908883316338
2023-10-16 15:09:47.079952,781.719088837936,794.6128628536779,794.9074228016565,787.5874223866023
2023-10-16 15:09:47.080049,774.087360905126,792.9957020632596,791.7677251991137,781.3209408408484
2023-10-16 15:09:47.080148,759.2558368525617,789.8949733992964,790.1976384063332,769.2465692873038
2023-10-16 15:09:47.143518,801.9902246630824,798.6930120626995,780.0541028924505,803.7003297308481
2023-10-16 15:09:47.144156,794.1397653891498,796.9733694597943,770.7775547346472,797.1155665568684
2023-10-16 15:09:47.144405,820.5690782915203,802.46938318124,770.409597939696,818.5591149740284
2023-10-16 15:09:47.145425,807.3662055005824,799.7605883888683,774.5535390919953,807.9377233949135
2023-10-16 15:09:47.145707,784.8738296815982,795.0427061010533,770.4973483291452,789.5882208104887
2023-10-16 15:09:47.146326,796.3537516399545,797.4485846346156,772.3425114015009,798.9484925765063
2023-10-16 15:09:47.146566,802.9577633823457,798.9114216849389,781.8944139243765,804.5278616487559
2023-10-16 15:09:47.146813,828.078020576969,804.047550453342,772.1010270050641,824.6927198778044
2023-10-16 15:09:47.147143,794.3453209420627,796.9854290552088,767.4690632714958,797.2065334251428
2023-10-16 15:09:47.147322,791.9422403648792,796.5613241892618,775.6485557635053,795.4436045142162
2023-10-16 15:09:47.147476,815.5291437039401,801.4040056320192,768.6144214233846,814.4271601692574
2023-10-16 15:09:47.149289,814.6342778181158,801.1523836582322,761.567339859321,813.5392023647369
2023-10-16 15:09:47.176360,790.4543999237404,796.1756119470969,767.4484221500171,794.0479004585694
2023-10-16 15:09:47.180049,809.0603705344611,800.0702611085691,769.9375152381411,809.2069688699507
2023-10-16 15:09:47.188473,788.3506669914061,795.7392621934938,767.5988516700793,792.3438050148499
2023-10-16 15:09:47.189671,786.1717290421542,795.3360307024077,773.0026758739468,790.6991494325945
2023-10-16 15:09:47.190909,787.6206527824991,795.524416428592,760.8182544590711,791.5957646127673
2023-10-16 15:09:47.191389,819.3234790699328,802.1710453398083,766.1918947734325,817.4513652420536
2023-10-16 15:09:47.193448,792.8031157426415,796.6259016482933,763.3082826191476,795.8593417869298
2023-10-16 15:09:47.194284,778.9242842035748,793.7266248458005,762.0845249146313,784.5661887565889
2023-10-16 15:09:47.194887,797.8262729256217,797.6965266190778,766.0448064543532,799.9992677511464
2023-10-16 15:09:47.195160,800.8944473859857,798.2871496531816,760.8950614950112,802.3715206006746
2023-10-16 15:09:47.196423,805.3912579377583,799.2656194810118,765.5024811423142,806.1271319595432
2023-10-16 15:09:47.197249,772.979222807795,792.474728277158,760.4854482148193,779.7040633895776
2023-10-16 15:09:47.209085,785.898926632012,795.2736361491849,772.3962258959809,790.4638144205202
2023-10-16 15:09:47.210563,797.1827379297425,797.6342021471365,773.7560154484473,799.6537766548765
2023-10-16 15:09:47.211052,799.1938029636021,798.1076651595357,779.6807763473083,801.4219849289898
2023-10-16 15:09:47.211258,807.8782793253295,799.9009652477636,778.1972306723154,808.4369251719694
2023-10-16 15:09:47.211542,792.4717733943451,796.5904811936508,766.9197967663232,795.6732265915122
2023-10-16 15:09:47.211761,780.8687779319997,794.2251457210632,772.2008506289784,786.3764925509156
2023-10-16 15:09:47.212116,776.3072932355493,793.3451153079728,779.6474564377544,782.8448349606722
2023-10-16 15:09:47.212564,788.9969245265787,795.9377082868185,774.4902406815719,793.0264032082225
2023-10-16 15:09:47.213057,784.4455262652757,794.9746003782531,772.761279022526,789.2924992343925
2023-10-16 15:09:47.213296,803.3060872721155,798.7870247758622,760.6860169822189,804.3241918439844
2023-10-16 15:09:47.213509,794.9425409260067,797.0493195679973,760.964723449832,797.5421102736149
2023-10-16 15:09:47.213872,781.7077785851912,794.4262104866499,775.0539255837499,787.122920275441
2023-10-16 15:09:47.276632,781.9352692054773,794.4740596782464,775.1091654092445,787.3088353812873
2023-10-16 15:09:47.277075,787.0921138879975,795.5448343180216,774.86515697138,791.48891622583
2023-10-16 15:09:47.277373,777.5237703696314,793.5571842624772,775.2246749886101,783.7307854068588
2023-10-16 15:09:47.277575,802.9964099487529,798.9042980530293,780.2607474686226,804.5217634115027
2023-10-16 15:09:47.277971,810.078081421532,800.2864438128996,770.4133048987634,810.0439301793815
2023-10-16 15:09:47.279463,805.1025601857843,799.2768143155719,773.1797064076947,806.0688736566248
2023-10-16 15:09:47.280549,788.0693378947872,795.7622545897068,776.3817914332293,792.3168862129174
2023-10-16 15:09:47.280952,788.3122848087609,795.8340200137085,778.6669352783324,792.5664876084005
2023-10-16 15:09:47.281249,770.2079374495835,791.9975781844279,771.2041214453693,777.7005060136867
2023-10-16 15:09:47.281523,803.056187008231,798.899844963436,778.4411157730972,804.5285513035577
2023-10-16 15:09:47.281735,803.7045113828325,799.0265693445253,777.5599948852617,805.034571662871
2023-10-16 15:09:47.281991,801.7230240699508,798.6473692808669,781.1266611986256,803.5080480936766
2023-10-16 15:09:47.309517,793.6043219959225,796.9970160735661,785.3270366723186,797.0146401688409
2023-10-16 15:09:47.310506,784.9146989189526,795.171364988308,783.4409550199082,789.9182431376057
2023-10-16 15:09:47.310921,789.3041026261402,796.1229113758693,787.5556268534109,793.5753744268064
2023-10-16 15:09:47.312499,779.3790483801739,794.0818862100225,790.1611455888918,785.5792207509643
2023-10-16 15:09:47.312932,813.1679829386812,801.1059415151055,789.431934124033,812.9880979619679
2023-10-16 15:09:47.313474,804.1179960543825,799.1406209444323,780.5777255433078,805.4393953401601
2023-10-16 15:09:47.313697,787.8809767756856,795.8237987670095,787.2337880571847,792.4128790391037
2023-10-16 15:09:47.313851,785.8016868186368,795.3828854468318,786.3447115179391,790.7047831993727
2023-10-16 15:09:47.313983,798.7264879239659,798.1303005745415,792.5942049541882,801.3388351642066
2023-10-16 15:09:47.314251,795.1323552596456,797.2856835121693,782.1721365177286,798.1825503398599
2023-10-16 15:09:47.314797,790.8948606398217,796.4564533243152,787.828809193581,794.8728165981311
2023-10-16 15:09:47.315181,796.2662272647345,797.5435815705457,784.5378942331663,799.1571413088341
2023-10-16 15:09:47.359539,787.9008385550796,795.7964093633601,783.8380708163722,792.3511226483213
2023-10-16 15:09:47.360781,792.5343590289,796.6767057435189,774.8054072798252,795.9048750198632
2023-10-16 15:09:47.362557,792.0882633233894,796.5678482037689,773.0781923347082,795.503178615146
2023-10-16 15:09:47.363460,777.3560119410006,793.533987917751,776.4862297544643,783.6235528546996
2023-10-16 15:09:47.364453,774.3873168591355,792.9453874318261,779.6239851145756,781.2859016856053
2023-10-16 15:09:47.369770,807.1657098408632,799.7742507361611,780.5194929003529,807.9118099885903
2023-10-16 15:09:47.370947,777.2842737249131,793.5440436151083,779.1775130023726,783.6270469366393
2023-10-16 15:09:47.372632,789.8662715662379,796.1873211287593,781.8929041297229,793.9018029743714
2023-10-16 15:09:47.373081,792.7683700741522,796.7778845873344,780.4593959909472,796.2244847907466
2023-10-16 15:09:47.375911,777.6904141828272,793.7122799295149,788.1968847045435,784.1635516763714
2023-10-16 15:09:47.376333,780.3137615813183,794.2696516623453,789.4361269937299,786.3212755499313
2023-10-16 15:09:47.376568,772.7458610650981,792.688099396022,788.7016221226811,780.1617619654702
2023-10-16 15:09:47.432835,788.0814855057474,795.9880433346785,800.4324631518448,792.878326359651
2023-10-16 15:09:47.434245,798.7892283009338,798.2093821213742,799.706870893152,801.5528824132743
2023-10-16 15:09:47.435072,788.8342290375227,796.074499867637,792.872916634766,793.3159374301754
2023-10-16 15:09:47.435789,773.6457968082029,792.9387752356123,795.5331391687869,781.0488910656853
2023-10-16 15:09:47.436645,814.6441633623213,801.4810413238616,796.7502129968672,814.3541133489799
2023-10-16 15:09:47.438152,809.4410408930851,800.4020205600576,797.1432462735181,810.1398877752625
2023-10-16 15:09:47.438572,786.5236815043097,795.5401639444666,787.103668005036,791.3082135182046
2023-10-16 15:09:47.438904,794.7433285392061,797.2704112424299,789.247119264498,798.0290457342684
2023-10-16 15:09:47.439117,814.465061099005,801.5046250042002,803.3053958229112,814.3590778378856
2023-10-16 15:09:47.439519,801.1503691287754,798.6659334537829,795.9627508257728,803.3834911444662
2023-10-16 15:09:47.439945,791.7263838414375,796.6114120900365,785.8827512396743,795.5031113279651
2023-10-16 15:09:47.440685,778.5253545574377,793.9682414272888,797.0546917745257,785.0443968390715
2023-10-16 15:09:47.453035,792.4304649030811,796.795832276916,789.9670714424943,796.1682658107071
2023-10-16 15:09:47.453795,799.8664346515437,798.3841219716749,794.3846394653327,802.305162314139
2023-10-16 15:09:47.454250,800.0907175936122,798.3663041665199,787.4378404804025,802.3278884494233
2023-10-16 15:09:47.454995,795.6442110802802,797.4473821887917,788.1175955075171,798.7343641073174
2023-10-16 15:09:47.456523,774.4073340705004,792.9783530398829,782.7264933376731,781.3733023362032
2023-10-16 15:09:47.457290,787.2532101625361,795.6899310155752,786.8845835029438,791.8953284878597
2023-10-16 15:09:47.457596,772.7149026152355,792.6234070460043,782.4266205017715,779.9927223496089
2023-10-16 15:09:47.458001,809.822386088784,800.4228452395331,790.8385779766868,810.3048239468075
2023-10-16 15:09:47.458258,783.7928415938654,794.9849650120617,788.5079742547429,789.123868140755
2023-10-16 15:09:47.459886,790.9108880832817,796.4959203728172,791.72111355382,794.9750921126157
2023-10-16 15:09:47.460337,784.7774861387861,795.2238823425336,792.1740330901298,790.0071562759365
2023-10-16 15:09:47.460656,802.9778940981241,798.9991286279297,790.8913572752257,804.7505379279033
2023-10-16 15:09:47.683741,819.7463459431569,802.5425642806683,796.7348436836995,818.4950700146677
2023-10-16 15:09:47.684428,779.2827397687159,794.0720131737972,791.2563718710155,785.5261675682955
2023-10-16 15:09:47.684677,790.0719714515418,796.319972963955,791.5719082862279,794.2907433742355
2023-10-16 15:09:47.684831,809.9530114574875,800.4753943614362,793.5713859653083,810.4735236292113
2023-10-16 15:09:47.685944,798.9223310749032,798.0519656907137,779.7657264174851,801.2035864968854
2023-10-16 15:09:47.686214,778.7344137739996,793.8729951503184,782.1081999163794,784.871300603058
2023-10-16 15:09:47.686411,805.4858672578047,799.3970713384424,777.5423549230146,806.4800474256621
2023-10-16 15:09:47.686871,794.5196245227272,797.1479483516063,781.0692827137746,797.6599197600318
2023-10-16 15:09:47.687231,778.7534725161106,793.8835665285694,782.8197868352034,784.903089687004
2023-10-16 15:09:47.687419,773.2287679475004,792.7159470989918,780.8769618873525,780.374273491112
2023-10-16 15:09:47.687559,800.7381537744525,798.5585645987167,793.6364628591044,802.9955553472574
2023-10-16 15:09:47.687682,799.769633723681,798.4322246119447,801.7362981922909,802.3951951096851
2023-10-16 15:09:47.687805,819.1658284300546,802.4352563421673,798.1876737274815,818.0571983532276
2023-10-16 15:09:47.687929,828.832257288835,804.4903528052391,802.8951622733579,826.0111496762938
2023-10-16 15:09:47.688430,819.0360175683433,802.3314796523056,789.918147450313,817.7621801948766
2023-10-16 15:09:47.688684,791.456142864407,796.584340867883,789.0240716592717,795.35580706459
2023-10-16 15:09:47.688879,809.8041763260084,800.3911727663051,787.8348573364407,810.2211559585272
2023-10-16 15:09:47.689156,809.9678527300072,800.492853606366,795.1195005873464,810.5210745033928
2023-10-16 15:09:47.689350,792.0786324604511,796.7384545356155,791.672542417018,795.9218059738424
2023-10-16 15:09:47.689520,783.8406758654181,795.0680237587337,796.3832077243321,789.3433052826575
2023-10-16 15:09:47.689727,794.7665699863938,797.3394303813876,796.1612012788326,798.20647838603
2023-10-16 15:09:47.689906,800.7295769238384,798.5972588255623,797.9970298929991,803.08859937282
2023-10-16 15:09:47.690092,793.0651006137992,796.9924399577744,796.9209260498211,796.8428634624114
2023-10-16 15:09:47.690330,792.4505364082282,796.7568077234215,785.3132631784474,796.0778264773471
2023-10-16 15:09:47.690516,786.7767203937045,795.5023134414389,777.3542826525988,791.2900053441732
2023-10-16 15:09:47.690659,781.0575134940416,794.4744441659533,794.825806546125,787.04856706016
2023-10-16 15:09:47.691211,801.7806147792211,798.8386878985935,800.4454339014537,803.997851430315
2023-10-16 15:09:47.691407,819.2569545436952,802.4522084283976,797.9712017328211,818.1261984660156
2023-10-16 15:09:47.691597,805.2812540843465,799.3480847234646,776.8517802832705,806.2981305243115
2023-10-16 15:09:47.692584,806.0324933435696,799.5621236431178,783.0696931081236,807.0504940949236
2023-10-16 15:09:47.692891,781.6662373224563,794.5123897169885,785.2686974065562,787.3234687972409
2023-10-16 15:09:47.694013,790.2183153122788,796.4149340577087,798.5211861003836,794.5689022429109
2023-10-16 15:09:47.694371,801.8322128552852,798.8471276665781,800.1980129736685,804.0340578755727
2023-10-16 15:09:47.694946,809.4084319459404,800.267730231061,783.407838210303,809.7984108681045
2023-10-16 15:09:47.696624,782.750270465419,794.8657546228557,799.035724046471,788.5190845721531
2023-10-16 15:09:47.696993,780.612145828347,794.3923673727078,795.9672130998554,786.713250807291
2023-10-16 15:09:47.697215,791.4920191706999,796.6694221041433,797.3852189385675,795.5766822270925
2023-10-16 15:09:47.697394,804.6274339448987,799.3773978625474,794.6651444789516,806.1759749707355
2023-10-16 15:09:47.698055,787.2091902357661,795.6095685618731,779.2143067056002,791.6836878451631
2023-10-16 15:09:47.698352,789.9423160942855,796.2076282352929,782.3759091805643,793.9746036244869
2023-10-16 15:09:47.698617,779.1737359389529,794.0730242797296,793.8086542808196,785.4962262614442
2023-10-16 15:09:47.698802,797.2712476263127,797.7405281644552,783.2259476421449,799.9428019458257
2023-10-16 15:09:47.699342,783.3079505831687,794.8980408854909,790.0131351190226,788.7648141885248
2023-10-16 15:09:47.699738,787.3767437801357,795.753767225256,790.9922508963175,792.0898031279796
2023-10-16 15:09:47.699960,816.0331989431475,801.7484331449451,794.4190939933974,815.4280953794632
2023-10-16 15:09:47.700146,790.4305249442144,796.4874640605152,801.5776814330205,794.8112452281949
2023-10-16 15:09:47.700294,784.2146940969774,795.1240307694968,794.0327728243631,789.592981088364
2023-10-16 15:09:47.701151,808.8715729943393,800.1884843230956,786.9050116582138,809.4428608812726
2023-10-16 15:09:47.701480,812.6375594642066,801.029373717966,793.0733519216016,812.6410795976091
2023-10-16 15:09:47.701731,821.8770049797802,802.9831173516235,796.4336554563081,820.217563164615
2023-10-16 15:09:47.701973,790.8354867776367,796.3823992037533,781.1822582212417,794.6721917838568
2023-10-16 15:09:47.702864,801.600030206218,798.7814496128874,798.3273426333276,803.8026991267274
2023-10-16 15:09:47.703124,820.972528116593,802.878727840324,805.4625413637228,819.690492048404
2023-10-16 15:09:47.704032,796.8482007284632,797.7516340550347,793.9050777979515,799.8443418829362
2023-10-16 15:09:47.704283,783.8460408711782,795.0860821530886,798.2082794416799,789.3895162757962
2023-10-16 15:09:47.704452,807.5224577660645,800.0064250997335,797.5337069036091,808.591578516825
2023-10-16 15:09:47.704734,808.9638055539904,800.3126984470473,798.2184806627034,809.777187760875
2023-10-16 15:09:47.705015,810.9428450058118,800.7537007135005,801.3642914419667,811.4556690120053
2023-10-16 15:09:47.705199,783.9976446645567,795.0555102595044,791.5166837765948,789.3591034885147
2023-10-16 15:09:47.710523,816.8260282170893,801.8630337962766,788.9928198274006,815.9471676642793
2023-10-16 15:09:47.744019,767.550888889403,791.5031617090093,777.5021228233159,775.688287599329
2023-10-16 15:09:47.744378,770.2425388758662,792.1123352186365,782.7906542009944,777.9943176668309
2023-10-16 15:09:47.744586,791.8579664789471,796.6203783984913,783.8991677399139,795.5644218583432
2023-10-16 15:09:47.744733,791.9175042183018,796.6193872125573,782.4578321097931,795.5796913761081
2023-10-16 15:09:47.744966,808.8238378897096,800.1392302601447,782.6691457759139,809.3069698108237
2023-10-16 15:09:47.745177,781.021339174965,794.3334952176023,780.4530216204722,786.6895785754582
2023-10-16 15:09:47.745322,778.887822122263,793.9631900022625,788.3856838960635,785.1397865532573
2023-10-16 15:09:47.745978,794.1058182028765,797.0833062165956,783.3813686074485,797.3770694964439
2023-10-16 15:09:47.747885,777.461639298907,793.6545838740121,787.1096842786471,783.9529270907946
2023-10-16 15:09:47.748220,794.5631835567018,797.1407813506308,779.3208295529043,797.6551763166602
2023-10-16 15:09:47.748466,779.3801520213615,794.0404756657393,785.6754795771377,785.4772418842216
2023-10-16 15:09:47.751832,774.0708534470515,792.9539725769191,787.6424607082375,781.2129329825874
2023-10-16 15:09:47.777060,810.6134601445328,800.602642806421,792.4749485684312,810.9844468901983
2023-10-16 15:09:47.777331,800.1157741432137,798.4279343927703,793.5152698496241,802.4876065064487
2023-10-16 15:09:47.777484,806.3051990897585,799.7128472896095,793.1935115026446,807.5040228219123
2023-10-16 15:09:47.777695,802.6701043484487,798.9011218916268,787.2328592947363,804.4168086600162
2023-10-16 15:09:47.777856,793.054737582001,796.8782277399946,784.8497706623561,796.5576111062538
2023-10-16 15:09:47.777997,796.3343186688808,797.656143578486,795.137278650586,799.4554965597337
2023-10-16 15:09:47.778196,812.8994853103228,800.9856093597613,782.4876954048652,812.6109056183108
2023-10-16 15:09:47.778869,822.2793975247084,802.9985608741512,789.0775208667279,820.3754685015716
2023-10-16 15:09:47.779156,820.2827443720919,802.5812511759731,788.8787963044109,818.7502794044219
2023-10-16 15:09:47.779751,813.9647271633696,801.215078426796,783.3293266081879,813.4948368214167
2023-10-16 15:09:47.780242,797.6070270951336,797.939800779102,797.1658551237621,800.5350445029101
2023-10-16 15:09:47.780533,792.2716234410399,796.8019504793546,794.186642096462,796.1361103285532
2023-10-16 15:09:47.844263,820.0557839057752,802.5744779773477,793.2365610104038,818.6660028495762
2023-10-16 15:09:47.846606,794.1365001186175,797.1718843591997,792.2356523526723,797.6050381425936
2023-10-16 15:09:47.846994,788.6021027259874,795.9664490914248,786.4364058786407,792.9799110184789
2023-10-16 15:09:47.848387,787.4027778794407,795.728429103986,787.679152032374,792.0349514262438
2023-10-16 15:09:47.849118,778.6174023104351,793.997388243488,798.1312312838312,785.1437990635397
2023-10-16 15:09:47.851034,806.2691660379419,799.7160821190828,794.3496760068917,807.5012913088462
2023-10-16 15:09:47.851626,800.5290533587977,798.5066519602245,792.7312672011352,802.8050741303676
2023-10-16 15:09:47.852787,791.0934841864722,796.5805995806478,796.7501734498865,795.2386375366948
2023-10-16 15:09:47.855656,805.8574054938537,799.6666235768156,798.251549020148,807.256561867665
2023-10-16 15:09:47.858039,779.9351237500235,794.2760824995802,798.616193840939,786.224481522122
2023-10-16 15:09:47.870221,793.9637009048978,797.1797602016295,796.9574320033612,797.5730712215884
2023-10-16 15:09:47.872769,808.7405962927496,800.1756508915446,788.4584292275522,809.3721767096074
2023-10-16 15:09:47.873126,816.044859713733,801.7211654457716,791.220315976826,815.364199064432
2023-10-16 15:09:47.873378,807.0036445202093,799.8602087019385,793.4120209388468,808.0759441608473
2023-10-16 15:09:47.875239,779.9579815895436,794.2494071166348,795.230236269205,786.1653807846847
2023-10-16 15:09:47.876468,784.4771574457128,795.1652361091353,792.5883806695515,789.7728899566526
2023-10-16 15:09:47.876793,782.8464423828818,794.8250963352211,792.5001035036423,788.447256317556
2023-10-16 15:09:47.877048,818.804436368405,802.2782807121816,789.3783008599648,817.5618308570324
2023-10-16 15:09:47.878733,792.3374355944909,796.7592092983267,788.1071685000195,796.0501011563314
2023-10-16 15:09:47.879261,784.4598984212026,795.0767096200921,783.4387821499781,789.5490435475283
2023-10-16 15:09:47.879673,773.9248890537352,792.9425720498106,789.6861918120256,781.1413285848807
2023-10-16 15:09:47.880037,813.452102150859,801.2104021168427,794.3162550584735,813.3307276018146
2023-10-16 15:09:47.880642,798.7520384555429,798.1681594478265,796.0998059676733,801.4399716331137
2023-10-16 15:09:47.881530,784.1635778777019,795.0381049692884,785.9222537178749,789.3654840129525
2023-10-16 15:09:47.929107,797.7102110275301,797.8642453603675,786.7137839173018,800.3790874906246
2023-10-16 15:09:47.929418,805.1934185470913,799.4438702406134,789.1390873944448,806.5086348941029
2023-10-16 15:09:47.929602,812.2744031561717,800.9370908059159,791.2725117783442,812.3050144218462
2023-10-16 15:09:47.929757,784.8497423478617,795.1373532262191,781.233082993469,789.8148840415336
2023-10-16 15:09:47.935437,797.0187108564922,797.7934120601398,794.5835415252403,799.9983004748912
2023-10-16 15:09:47.935739,803.9310780347495,799.2380673564013,795.2649224943673,805.6245163184469
2023-10-16 15:09:47.937471,807.6197965943136,799.9999037345982,794.6493103048233,808.6044349083978
2023-10-16 15:09:47.937842,785.315031028774,795.2517900055707,783.1311006530347,790.2360760907884
2023-10-16 15:09:47.938039,798.1766917405417,797.9935299517853,790.1845538961,800.8373167230903
2023-10-16 15:09:47.938204,812.319200007569,800.8737012090569,783.4397651068338,812.1617379537237
2023-10-16 15:09:47.938503,803.9120111802322,799.1217091257984,783.1576885283607,805.3313718660097
2023-10-16 15:09:47.938757,796.5199390334316,797.641865757015,789.4384585364235,799.475462543059
2023-10-16 15:09:47.959510,797.8429916871072,797.9084912930672,788.5038238904136,800.5279150410822
2023-10-16 15:09:47.960784,809.7363551287332,800.4141378557484,791.8289961107339,810.2577091875771
2023-10-16 15:09:47.963735,817.1519996189019,801.887556046354,784.3276945253234,816.1047597898444
2023-10-16 15:09:47.966377,800.4143251334789,798.4464900506631,788.8220355519602,802.6222975415948
2023-10-16 15:09:47.966793,808.4535308232296,800.1041870317239,787.1947051294851,809.1101907593255
2023-10-16 15:09:47.967185,816.633237402995,801.7418526556902,780.2601281084984,815.5904080360813
2023-10-16 15:09:47.967856,809.4946263075433,800.3080991125867,785.824474321728,809.9237959415068
2023-10-16 15:09:47.968422,831.899669353018,804.9676980388946,785.5597196690437,828.1033158340293
2023-10-16 15:09:47.968723,821.7547640668057,802.8830823751557,788.3975199091475,819.934041940915
2023-10-16 15:09:47.969900,830.7672798025842,804.6527758455496,777.0178394629661,826.9882843919929
2023-10-16 15:09:47.970209,827.3493215867203,804.0019721903916,783.5251946713516,824.3632567029132
2023-10-16 15:09:47.970426,838.8247515201581,806.3686956278236,781.2530875573577,833.6254565679307
2023-10-16 15:09:48.025529,837.4491317665551,806.1304688999936,786.4252789678341,832.6275212236308
2023-10-16 15:09:48.026218,815.613469223389,801.5786028007107,785.532614713318,814.8836083553116
2023-10-16 15:09:48.026649,819.1190241556055,802.362342243995,791.3821790146744,817.8631307171153
2023-10-16 15:09:48.031130,816.1836697800443,801.6774924804455,783.4041909367797,815.2976118842236
2023-10-16 15:09:48.031467,811.5485954686874,800.7286237155479,785.0847629266477,811.57398478105
2023-10-16 15:09:48.031899,823.3871290594394,803.3036446613457,797.1122829701422,821.4588553806786
2023-10-16 15:09:48.032350,835.0345200233812,805.7392500589028,798.4058753002389,830.9424076184855
2023-10-16 15:09:48.033016,821.6645330770145,802.9610146598784,798.8152926101508,820.0997259154739
2023-10-16 15:09:48.033612,807.4084401838626,799.9496623192426,793.9747151815832,808.4174111722905
2023-10-16 15:09:48.033886,811.2058146851383,800.6898321673025,788.5895247228314,811.3761370367613
2023-10-16 15:09:48.034051,842.9188196409686,807.3117008181285,791.0677213212421,837.1735950629997
2023-10-16 15:09:48.034292,803.2695604710314,799.0868938283144,793.8080031042741,805.0541665661514
2023-10-16 15:09:48.061141,810.8246912053656,800.5588345619057,783.0209069877689,810.9390778274195
2023-10-16 15:09:48.061845,822.4773236243192,803.0415872895665,789.2759296369028,820.5406703028111
2023-10-16 15:09:48.062902,829.9768421198088,804.561129912875,784.8632893145591,826.5266348901774
2023-10-16 15:09:48.065430,811.7345433754373,800.6788406579284,775.5538193314344,811.5063303608115
2023-10-16 15:09:48.065810,782.577666048081,794.6376554922496,778.3328666418223,787.9041848726939
2023-10-16 15:09:48.066475,795.5925878862245,797.3791169738173,781.9209169946514,798.5503477241891
2023-10-16 15:09:48.068354,793.2575377692793,796.8952976562028,782.1427757261681,796.6601362906694
2023-10-16 15:09:48.070686,817.6483608923394,801.9783607436088,782.9834557176632,816.4768144573427
2023-10-16 15:09:48.070986,795.0114914810729,797.1974418088847,775.3755556774565,797.9285749584004
2023-10-16 15:09:48.071857,808.9170981638201,800.1029636438179,776.6718811172345,809.2451249526781
2023-10-16 15:09:48.072120,794.8461392916394,797.1711657505981,776.2514132891924,797.8144498752625
2023-10-16 15:09:48.072856,786.6359250523851,795.5098674102837,781.3240098889127,791.2667674985448
2023-10-16 15:09:48.127206,791.8906771087785,796.6398014475104,785.2582837232401,795.6221423143559
2023-10-16 15:09:48.127756,795.2830446040833,797.3293257440492,783.4957132949729,798.3352159964445
2023-10-16 15:09:48.128294,794.4403795276728,797.075244809275,775.013640890113,797.4567180260877
2023-10-16 15:09:48.128963,790.040263413162,796.1942926552663,778.7438155884039,793.9708061626966
2023-10-16 15:09:48.129894,807.0003814202458,799.7316317729777,779.634287530506,807.7573158227875
2023-10-16 15:09:48.131134,808.6320873013593,800.0946750089331,782.1676176399314,809.1398287452361
2023-10-16 15:09:48.131932,809.4665616952781,800.279453731822,783.3677456419772,809.8446737900474
2023-10-16 15:09:48.132455,793.4111022385315,796.8981810627596,779.0111840805787,796.7129603822025
2023-10-16 15:09:48.133129,793.8038862466932,797.0382701300778,785.2977993105026,797.175950758193
2023-10-16 15:09:48.133646,785.53598790513,795.270401948846,780.1832307377954,790.3478143401628
2023-10-16 15:09:48.135945,780.7285621563191,794.2381434227036,776.7440097240014,786.3668762609673
2023-10-16 15:09:48.136185,788.2108995880124,795.8060863352661,777.9303831787311,792.4673037052827
2023-10-16 15:09:48.160323,774.8755319461676,793.0332462793829,778.1450061265544,781.6482541617839
2023-10-16 15:09:48.161681,802.7678010401245,798.8681560385062,781.4917235289358,804.3644388096685
2023-10-16 15:09:48.161888,811.4888086873191,800.7233857209501,785.8606459739044,811.5432515735713
2023-10-16 15:09:48.162037,790.9699950552774,796.4611188277728,786.6472319060571,794.9067028539473
2023-10-16 15:09:48.162743,785.3934172413235,795.272585573727,783.6142352226254,790.3107803958179
2023-10-16 15:09:48.163026,785.9559788172813,795.433194046141,788.3056641184879,790.8749906707244
2023-10-16 15:09:48.163528,783.2314541222415,794.7702768848985,777.9645271236727,788.4264001486823
2023-10-16 15:09:48.163803,790.644070132486,796.3747130563157,784.6449479930482,794.5962374977014
2023-10-16 15:09:48.164481,791.6270375158897,796.6165307401601,788.6610399589285,795.486192015395
2023-10-16 15:09:48.164652,800.8224491373322,798.5159457109196,787.1558551826653,802.915348871599
2023-10-16 15:09:48.165033,793.2125706045271,796.9636707573777,790.516185221462,796.8156741291954
2023-10-16 15:09:48.165217,806.0197343872213,799.6083475956405,788.3351390490259,807.1608961872391
2023-10-16 15:09:48.227669,804.7224741324064,799.2851256104357,782.5948069297382,805.976294427769
2023-10-16 15:09:48.228134,817.8261043061211,802.0496941709359,786.6836237978792,816.7059441561983
2023-10-16 15:09:48.228343,803.5362621392596,799.0348085418914,782.2189274593029,805.0048564940649
2023-10-16 15:09:48.228732,798.5249758073188,798.0509941275627,788.5679321980432,801.082934112608
2023-10-16 15:09:48.229040,822.228548591675,802.9147841335957,781.192516675888,820.1533603546155
2023-10-16 15:09:48.229515,791.0753000346867,796.4528357324605,783.3944896631469,794.9175774918195
2023-10-16 15:09:48.230115,817.3101721344274,802.0288758301838,796.0057923116264,816.5009708487545
2023-10-16 15:09:48.230392,803.9230566149688,799.193266650751,790.6185949180567,805.5114462499812
2023-10-16 15:09:48.230559,813.086892760575,801.1376397168909,794.6642716561787,813.0422780642849
2023-10-16 15:09:48.230722,809.6689297757034,800.3085458424148,781.965520638822,809.9767719543474
2023-10-16 15:09:48.230851,788.0767457360441,795.8302161900409,783.536866893192,792.4869941029257
2023-10-16 15:09:48.230986,797.1340054592542,797.7699491239026,789.4716383547649,799.9746452684836
2023-10-16 15:09:48.259345,792.7411919389621,796.8701579866325,791.0087038476391,796.4443637694869
2023-10-16 15:09:48.262143,798.3303633308699,798.0802674915554,796.0837002062777,801.0973395102463
2023-10-16 15:09:48.262730,813.3354806858094,801.1346551352838,788.7705680117729,813.1088837057313
2023-10-16 15:09:48.262956,788.351074795075,795.8754041654679,782.2555275959115,792.6802735289745
2023-10-16 15:09:48.263101,796.4622755640378,797.6747857829951,794.2772979557635,799.5396329759249
2023-10-16 15:09:48.263291,791.9881977762268,796.6160337709342,780.5119619766893,795.5924447429918
2023-10-16 15:09:48.263574,815.3162323456893,801.6065470017016,795.2055637078907,814.8641891713914
2023-10-16 15:09:48.264030,803.9311042450823,799.2079534678255,792.0203333503921,805.5501258964207
2023-10-16 15:09:48.264232,806.1999182492948,799.7517579220419,799.7450467908077,807.5688225903657
2023-10-16 15:09:48.264779,797.1036603415109,797.807809727805,794.2303476738175,800.0591515873392
2023-10-16 15:09:48.265116,820.387091614889,802.7054856093287,799.9228979762396,819.0882617634464
2023-10-16 15:09:48.266780,816.9621355978567,801.9378314458627,793.9994565382684,816.1724651439011
2023-10-16 15:09:48.293304,802.5310090900009,798.8858507811777,788.7056597693681,804.3376859868823
2023-10-16 15:09:48.294855,807.8920228392715,799.99417110101,787.929712540031,808.6712860310258
2023-10-16 15:09:48.295611,823.1619129815703,803.1651937494182,787.2460393021189,821.0497800263289
2023-10-16 15:09:48.296413,807.4896203397627,799.9526891961931,792.4811002473392,808.4490482995079
2023-10-16 15:09:48.296937,807.3726814961994,799.8793824972324,787.205405422589,808.233138821178
2023-10-16 15:09:48.297400,799.8286720608005,798.3768939787476,794.4524706006041,802.2760670448542
2023-10-16 15:09:48.297696,818.5099882708029,802.2154484125339,789.2098910722766,817.3189726550942
2023-10-16 15:09:48.297919,781.9088349515014,794.5641335828633,785.4048595687979,787.5235017499901
2023-10-16 15:09:48.298086,779.5356020546491,794.0554937411365,783.8088226523646,785.5606065646288
2023-10-16 15:09:48.298230,793.7826590801433,797.0783825868032,790.0947059177028,797.2687339013346
2023-10-16 15:09:48.298361,802.2402528825335,798.9129017843289,798.1371228853774,804.3179887361127
2023-10-16 15:09:48.298464,823.6744360943902,803.2541143937142,785.3365682823674,821.4219897534172
2023-10-16 15:09:48.353242,782.4405896141177,794.7249896537716,790.8135093520848,788.0791556607746
2023-10-16 15:09:48.353693,796.1469731934243,797.570474244698,790.1080169501455,799.1880915652816
2023-10-16 15:09:48.353950,813.0095209499635,801.0713312265046,789.2555450599021,812.8554331569404
2023-10-16 15:09:48.354694,801.4528464902521,798.6381665840081,786.1914373332639,803.4049079928715
2023-10-16 15:09:48.354998,798.6436155812152,798.1050575682539,791.732530910717,801.2518081257609
2023-10-16 15:09:48.355489,801.5956723445317,798.6845961171981,787.9915376406444,803.562119691695
2023-10-16 15:09:48.355757,804.9430704826071,799.4026847672494,790.3140510067327,806.3323805893452
2023-10-16 15:09:48.356550,795.010430644322,797.3482266286411,791.6425442300738,798.300782468361
2023-10-16 15:09:48.358483,811.289895514351,800.6896014634644,786.6799690622898,811.4005893435587
2023-10-16 15:09:48.359502,790.0034308163785,796.2686870835648,787.5835297633909,794.1436408919035
2023-10-16 15:09:48.362264,808.2356519398548,800.0603532126286,787.3565683614389,808.9370563116537
2023-10-16 15:09:48.362685,803.6944809581717,799.107717419194,786.5264610910273,805.2320679617565
2023-10-16 15:09:48.379981,798.4438942077106,798.0362262832358,788.7945488803127,801.0223195302708
2023-10-16 15:09:48.380553,780.9388243809601,794.3870899349309,788.0760822138243,786.7974314095501
2023-10-16 15:09:48.381061,802.3805162458211,798.8081153336229,783.7050059727718,804.1008494127473
2023-10-16 15:09:48.381765,785.0355358098439,795.2106066641586,784.9596382920348,790.0511529223469
2023-10-16 15:09:48.382350,779.7803377362923,794.1285485250714,786.1927661716247,785.8139257369149
2023-10-16 15:09:48.383251,790.8930015447502,796.5333905889422,796.1585048595708,795.0623416008675
2023-10-16 15:09:48.383995,779.8562472577864,794.1446610819681,786.2269419555329,785.8763233153516
2023-10-16 15:09:48.384681,781.0799298966631,794.432747974757,789.8316358668824,786.9522251172755
2023-10-16 15:09:48.385215,793.4326143525761,796.9767486009002,786.9926256500264,796.9134682982028
2023-10-16 15:09:48.385432,808.4454362661152,800.1677316755405,794.2214584995795,809.2647728047892
2023-10-16 15:09:48.387187,778.8009664584429,794.0160309652421,796.0248489478183,785.244485357093
2023-10-16 15:09:48.387796,789.3934717770904,796.1489036904823,788.3523913282095,793.6661861139822
2023-10-16 15:09:48.444357,799.3467850151382,798.3131413204047,798.3864297863539,801.9751536099837
2023-10-16 15:09:48.444809,795.0626178565043,797.4187719004748,798.0721979024871,798.49059972341
2023-10-16 15:09:48.445440,814.7344627423469,801.4833740463824,794.9774098510212,814.3867493863833
2023-10-16 15:09:48.445747,798.8793000517572,798.1431782196221,790.5561010209734,801.4161267442487
2023-10-16 15:09:48.446264,771.9218122709115,792.6252107489884,800.3983399469035,779.7611565196136
2023-10-16 15:09:48.446729,823.3856627133334,803.2621325248027,792.673280215574,821.3558607012618
2023-10-16 15:09:48.447407,775.2563622392198,793.296486304958,797.9659357355126,782.4119391883839
2023-10-16 15:09:48.447741,808.3466604658047,800.1894057621068,798.7703837177335,809.2889245078375
2023-10-16 15:09:48.448183,824.1324677969772,803.4344530148798,794.496492492572,822.0038367130718
2023-10-16 15:09:48.449695,806.8512169631636,799.8358019802531,794.1995413128121,807.9702837322166
2023-10-16 15:09:48.450032,772.8230155184696,792.805981009243,799.6709063763283,780.4759567739206
2023-10-16 15:09:48.451848,792.0683019067726,796.8030405096703,798.8615931974714,796.0782952621996
2023-10-16 15:09:48.510286,777.5136188428196,793.7225731414387,793.2686487825999,784.1363677774128
2023-10-16 15:09:48.510678,742.6318466096915,786.4504238791969,791.7684439375436,755.7893329641461
2023-10-16 15:09:48.511071,718.3828191128315,781.4506165616274,796.7180427333451,736.2205413953875
2023-10-16 15:09:48.511443,733.2384199280181,784.5094031247226,793.2302507763083,748.1984575905947
2023-10-16 15:09:48.511802,706.383709010256,778.9979682050986,801.47242325966,726.5902126113729
2023-10-16 15:09:48.512183,720.4147680123582,781.9104138756173,800.7025543372639,737.961202711054
2023-10-16 15:09:48.512352,719.2574012743117,781.676310555991,801.4267146299719,737.038406131942
2023-10-16 15:09:48.512555,705.3072851990278,778.7980301613346,804.0626526232712,725.7759118988562
2023-10-16 15:09:48.512932,706.1911261480169,778.9653320217319,802.2735257022102,726.4522706563288
2023-10-16 15:09:48.513104,717.2902275285777,781.3286456128351,808.0696400204214,735.594051713151
2023-10-16 15:09:48.513316,740.1358890457988,786.0186965960834,801.2086882263263,753.9799324081621
2023-10-16 15:09:48.513457,777.6979754847896,793.7420560520188,791.2350112646511,784.2393656538754
2023-10-16 15:09:48.543468,748.9166743655281,787.7933895286155,795.56189592067,760.9775638632916
2023-10-16 15:09:48.543921,764.7536689941314,791.0651427565575,793.0175083711472,773.773688060279
2023-10-16 15:09:48.544181,782.6833685756121,794.7026970515213,782.9700701886927,788.0963309091904
2023-10-16 15:09:48.544425,788.922611788705,796.0408108465434,787.2626534658572,793.2590091399094
2023-10-16 15:09:48.544560,755.1215683165386,789.0092038448687,787.4497885093408,765.8278714091338
2023-10-16 15:09:48.544788,755.7513489575272,789.1577455136817,789.3345873340586,766.3822741501934
2023-10-16 15:09:48.545026,769.1988681442052,791.9154810938905,784.9789244750432,777.1973832131766
2023-10-16 15:09:48.545166,771.0388691118219,792.4011759765681,796.0558216836268,778.9449027783768
2023-10-16 15:09:48.545359,765.7239405373783,791.2616872074108,792.4411489001783,774.5480140040153
2023-10-16 15:09:48.545861,741.2011266332665,786.2057801579072,797.4844604472369,754.7591463326364
2023-10-16 15:09:48.546006,739.6752701512686,785.8786945800894,796.4519948887532,753.4969695807957
2023-10-16 15:09:48.546112,739.2554471915967,785.8099605090463,798.4581445165559,753.2022193973015
2023-10-16 15:09:48.577883,778.5495351156591,793.8512409923893,783.9088697892358,784.762536118747
2023-10-16 15:09:48.579908,771.5536929539617,792.370385189174,781.1989326257781,779.022042709815
2023-10-16 15:09:48.580601,782.4106716364035,794.6112093445247,779.2272124904804,787.7891508512645
2023-10-16 15:09:48.581219,780.5126569986785,794.2436955844313,782.1817080320759,786.3163403065449
2023-10-16 15:09:48.581642,785.561214005474,795.3193827091361,784.8942029913327,790.4763315679862
2023-10-16 15:09:48.581844,803.4148182616487,798.9524641885334,776.0706384441028,804.7652782437052
2023-10-16 15:09:48.582966,787.6295535934762,795.7071169033048,780.3000448485066,792.0497862851006
2023-10-16 15:09:48.585775,788.8162527693162,796.0148493396671,786.8500419897025,793.1632174166527
2023-10-16 15:09:48.587509,771.7860133242383,792.4581137333904,785.4418925249438,779.3079195433227
2023-10-16 15:09:48.588685,783.466899573627,794.8486383750264,781.1283765531135,788.6900651138191
2023-10-16 15:09:48.589833,769.7487539282133,791.9710835011429,778.64276695527,777.4983972282527
2023-10-16 15:09:48.590482,802.7149886099971,798.8014745580026,775.4923090881127,804.1839812262832
2023-10-16 15:09:48.644045,806.5093107447477,799.7468000688011,792.2758164018678,807.6486484523377
2023-10-16 15:09:48.645206,789.1970813332995,796.1431897146108,792.1390217234627,793.5936240076882
2023-10-16 15:09:48.646242,785.237217246896,795.3022819683954,790.3145438265317,790.337662389341
2023-10-16 15:09:48.647356,793.0562940392001,797.0433992273635,802.6078872313202,796.9661406684405
2023-10-16 15:09:48.648299,787.2898839685216,795.7064279059941,787.8396446295222,791.9469991210166
2023-10-16 15:09:48.649181,802.6675254567359,798.9439042796092,791.899374685808,804.5217377199705
2023-10-16 15:09:48.651139,774.4735272413748,793.0348860558046,787.3327358601132,781.532669590684
2023-10-16 15:09:48.652555,810.9848084331841,800.6942998163744,794.0247374539655,811.3214036520675
2023-10-16 15:09:48.653087,802.8581800604064,798.9640260320729,789.7933848827811,804.6281881547015
2023-10-16 15:09:48.653534,804.736657671113,799.43165306478,798.06146482426,806.3425205469794
2023-10-16 15:09:48.654481,786.8007351618122,795.6723480168494,795.1328611977866,791.7172330110852
2023-10-16 15:09:48.654928,802.9071147784756,799.0883689100605,802.0912611487543,804.9499477840855
2023-10-16 15:09:48.677885,800.024119851077,798.3790921155966,790.3082283643809,802.3396625219655
2023-10-16 15:09:48.678108,789.363474664263,796.1408090075412,788.1527926809459,793.6372606230877
2023-10-16 15:09:48.678490,776.5382922389833,793.5421752605349,795.6976994499107,783.4004285570569
2023-10-16 15:09:48.678716,778.5131772259065,793.9707835881793,797.6015040585816,785.047053456796
2023-10-16 15:09:48.679492,796.2095876985953,797.5774589384331,789.4569115942538,799.2239816254445
2023-10-16 15:09:48.679704,810.832505722328,800.628038040453,790.3006472885032,811.1123748800968
2023-10-16 15:09:48.680379,778.8573758009276,794.0065513356369,793.7392247053938,785.2378526461365
2023-10-16 15:09:48.680695,812.611502674523,801.0276656800108,793.4734271800352,812.6291053394568
2023-10-16 15:09:48.682014,790.2483301961428,796.4040261125919,796.6733390339999,794.5508858558267
2023-10-16 15:09:48.682416,786.0281653242838,795.4783891832675,791.5561971848246,791.0081305991954
2023-10-16 15:09:48.682905,798.6828136176025,798.1568698433834,796.4353403305141,801.3914788042001
2023-10-16 15:09:48.683155,796.295598530874,797.6458993526719,794.9016515824711,799.4186645367419
2023-10-16 15:09:48.915679,829.4547764523247,804.3997880707274,779.1851276509515,825.9726642757569
2023-10-16 15:09:48.916497,773.4770312648985,792.8380371979819,788.4641337370073,780.7497872555016
2023-10-16 15:09:48.919483,790.6856283716635,796.4633765307748,793.2646272082438,794.8276537320553
2023-10-16 15:09:48.920094,770.81187340698,792.4240124688976,803.604063500113,778.9337683074149
2023-10-16 15:09:48.920663,785.8929320159085,795.5737653083452,804.8618415255374,791.2035180653053
2023-10-16 15:09:48.921078,812.1052434170497,801.0145389748052,803.4073507980813,812.4460133313972
2023-10-16 15:09:48.924551,813.6525540254181,801.3496175262977,804.8199526657836,813.7343219206149
2023-10-16 15:09:48.924852,774.3043152718566,793.0458441743085,792.3061425392576,781.5093851793428
2023-10-16 15:09:48.925118,814.8140071415886,801.3999558418363,784.2082134594069,814.2043318014966
2023-10-16 15:09:48.925741,770.1285319565703,792.2477668862114,799.9354617753797,778.294981753291
2023-10-16 15:09:48.926527,780.2725180491504,794.2170621487935,784.6954405567362,786.1790759207845
2023-10-16 15:09:48.926817,791.0283548614302,796.5741582405716,797.5161818992049,795.2033414603018
2023-10-16 15:09:48.977258,805.8801897463455,799.701323299604,801.4788395114609,807.3490702213604
2023-10-16 15:09:48.978075,795.811215485482,797.6455915907095,805.7261251453565,799.2737528338313
2023-10-16 15:09:48.978507,790.2359314545905,796.3774705057547,794.0905737210451,794.4815887495689
2023-10-16 15:09:48.978789,787.9073206072268,795.8927487376607,794.0708778496803,792.5910640692366
2023-10-16 15:09:48.978982,809.3188949620958,800.3786753089885,797.3663390011211,810.0458615224939
2023-10-16 15:09:48.979998,787.7172960629932,795.9781303626784,807.5280363544539,792.7454537509218
2023-10-16 15:09:48.981159,791.313016595847,796.7268102233573,807.5797312855163,795.6651923377548
2023-10-16 15:09:48.981684,806.0880035382214,799.7557356635169,802.6821568308043,807.5453442678518
2023-10-16 15:09:48.982474,798.7093240904779,798.0904040343949,788.6811064565262,801.2351603768385
2023-10-16 15:09:48.983623,816.1530853421776,801.718814988007,788.541196321237,815.390599828789
2023-10-16 15:09:48.985066,792.8329728554118,796.9441259869119,796.9195613246545,796.6544200882964
2023-10-16 15:09:48.988535,793.9015374893527,797.1872958934199,799.1626263419739,797.5731889142448
2023-10-16 15:09:49.012182,789.2622525569473,796.0741894285433,783.2451675567019,793.4425493548376
2023-10-16 15:09:49.013472,799.2856817515336,798.2282039620234,790.6062533493514,801.7471264181469
2023-10-16 15:09:49.015263,797.5901137618,797.8259647788515,785.282055014751,800.2487722596787
2023-10-16 15:09:49.015537,808.8639189028886,800.2200797762756,790.4801833188435,809.5186415590839
2023-10-16 15:09:49.015716,813.3566981842033,801.1737860647412,792.510327116276,813.2118733665953
2023-10-16 15:09:49.015914,799.2813953200206,798.2550060422643,793.5895742623695,801.8120669803698
2023-10-16 15:09:49.016158,803.2307805075741,799.0919796958466,795.2251426887435,805.0551906819402
2023-10-16 15:09:49.016325,798.9304792911543,798.1310792508854,788.1055446667393,801.4014663266556
2023-10-16 15:09:49.016525,793.4298794848431,796.9689963332567,786.2188200815613,796.8935019512677
2023-10-16 15:09:49.017037,792.7659522815408,796.8525424134081,788.5560638411151,796.4082120325206
2023-10-16 15:09:49.017369,797.2380919505579,797.8159510124632,792.0940281897093,800.1192716932917
2023-10-16 15:09:49.017664,808.0865467822854,800.0231087236854,786.6866746858194,808.8006681248701
2023-10-16 15:09:49.045363,815.8690343869353,801.6056851214234,782.7214537254597,815.0265725476692
2023-10-16 15:09:49.046119,808.0223296290135,799.9831834622574,783.8251999579476,808.6829194125053
2023-10-16 15:09:49.110693,803.2550025112928,798.9964243278058,784.3885493959548,804.8263236582596
2023-10-16 15:09:49.111170,786.6403491326233,795.574038871075,788.1376768271244,791.426623653762
2023-10-16 15:09:49.111520,790.2120814597197,796.3054456687374,786.8663454055745,794.2965492325703
2023-10-16 15:09:49.112133,792.4926084943143,796.7321356799268,781.7124196970424,796.0293932324582
2023-10-16 15:09:49.112555,803.2665528078973,799.0105123215783,785.647266347612,804.8645662607897
2023-10-16 15:09:49.112796,790.3298518134349,796.4031927057936,794.7562232296094,794.5730875317339
2023-10-16 15:09:49.113408,793.0122394455921,796.8924672438103,787.3363247795082,796.5801433256781
2023-10-16 15:09:49.113860,797.7811341355201,797.9054176740982,789.559280167803,800.5019128005232
2023-10-16 15:09:49.114498,787.9665194071575,795.8716065234265,790.4663815371156,792.5564483590066
2023-10-16 15:09:49.114854,789.6640170916619,796.2251026055098,790.4965020218254,793.9349539479174
2023-10-16 15:09:49.115058,813.2562694824279,801.0920787073472,785.9595951085769,812.9801229254849
2023-10-16 15:09:49.115645,814.1190055899751,801.2714091521966,785.9393135611588,813.6799182883144
2023-10-16 15:09:49.144197,814.1111363173467,801.3370940461558,793.1915743324461,813.8398549981613
2023-10-16 15:09:49.146186,821.3658113919764,802.9209038995705,801.1903418680166,819.911730869736
2023-10-16 15:09:49.146728,811.4102311844184,800.8297027960523,799.0749369131366,811.7825299791433
2023-10-16 15:09:49.147817,826.4602080919882,803.917312973087,794.3351397024188,823.8895026025384
2023-10-16 15:09:49.154064,802.6086880887915,799.050915181922,804.7459252644445,804.7686048904601
2023-10-16 15:09:49.155105,799.1019838994943,798.2615234243682,798.3132296296197,801.7747761206048
2023-10-16 15:09:49.156615,800.9813651517335,798.6197114593193,794.7717999186663,803.219001629562
2023-10-16 15:09:49.159608,820.5752249598199,802.7132509087661,796.5423312107619,819.1634344963868
2023-10-16 15:09:49.162635,811.231912061589,800.8280878397982,802.8980564651101,811.7254727405061
2023-10-16 15:09:49.162925,829.7251679013626,804.5868905874913,793.2797151238103,826.5153805193626
2023-10-16 15:09:49.163346,816.6504746885347,801.9228897601039,799.3758676785482,816.042801166321
2023-10-16 15:09:49.164726,804.7967102918709,799.4987769243804,803.9462427236103,806.526225720495
2023-10-16 15:09:49.177657,825.3626167226565,803.7115343470674,796.7706743712912,823.0544729507237
2023-10-16 15:09:49.179695,798.3931604527107,797.9898378746273,784.9345998617484,800.8926158439805
2023-10-16 15:09:49.180055,813.7219259561549,801.2730914877326,795.0212306441874,813.5659045527198
2023-10-16 15:09:49.180269,793.6818700734244,797.0368907010735,787.8842392394107,797.136231041506
2023-10-16 15:09:49.180518,789.4265159004271,796.1582255995422,788.6158923359666,793.6990503266304
2023-10-16 15:09:49.181425,789.2927498357467,796.1002641528067,785.3704445877139,793.516044496951
2023-10-16 15:09:49.181681,789.0020995944845,796.0799331188956,789.6953292645153,793.3793185316687
2023-10-16 15:09:49.181821,810.9412189467274,800.6881910234977,794.3437458279922,811.2933393639543
2023-10-16 15:09:49.181945,794.3911892043277,797.1668529000502,785.9846901887609,797.6684025389197
2023-10-16 15:09:49.182058,803.3524599959878,799.1070403829859,794.1200554780811,805.1286105953864
2023-10-16 15:09:49.182187,792.8998463837605,796.8650686877318,786.9041633072636,796.4790055654654
2023-10-16 15:09:49.182986,806.7974369631057,799.8151451228296,793.1797918266386,807.9032448768146
2023-10-16 15:09:49.243691,798.2009153944026,798.0109218707317,791.5151062793249,800.8874934408843
2023-10-16 15:09:49.244751,804.1013731475538,799.1984612820514,787.1811518988973,805.577346526122
2023-10-16 15:09:49.245776,815.8443856522235,801.6908085911983,792.443842007336,815.2295399279698
2023-10-16 15:09:49.246380,793.8392469184284,797.1241600127233,793.7576157060729,797.3986702798077
2023-10-16 15:09:49.246593,795.0127299586529,797.3650540219813,793.4037256782336,798.3430398542315
2023-10-16 15:09:49.247441,792.6049126273888,796.8377568873863,790.5730654572615,796.323758420502
2023-10-16 15:09:49.248041,814.2954609804176,801.4030381665171,796.1636612020903,814.0576286469143
2023-10-16 15:09:49.248240,813.4067807653311,801.2061770908925,794.8770123253004,813.3068018668146
2023-10-16 15:09:49.248432,832.1666595674494,805.1600897598374,800.3003236184034,828.6580871831846
2023-10-16 15:09:49.248635,792.3645836398671,796.8380562327878,795.9923763724427,796.2529765793087
2023-10-16 15:09:49.248754,801.1056202828164,798.607702525629,790.6929191077605,803.2263108781326
2023-10-16 15:09:49.249306,817.1877710105197,801.9802941790397,793.5160283468198,816.3445205656268
2023-10-16 15:09:49.271081,806.9927223369687,799.7861014893812,785.6736881643835,807.8896072955098
2023-10-16 15:09:49.271911,817.0319836099925,801.9156398199458,790.0432068724773,816.1384259800444
2023-10-16 15:09:49.273007,798.0232390530766,798.0013636436818,794.4681332858326,800.8110031514102
2023-10-16 15:09:49.278169,799.5188180031705,798.273891183438,790.3020472214164,801.9293803709035
2023-10-16 15:09:49.279807,789.7423533527002,796.2019961024131,786.2514304563862,793.9011806081793
2023-10-16 15:09:49.280084,798.5771812661551,797.9958299671013,781.4551993088771,800.962183878997
2023-10-16 15:09:49.281202,782.3694977174272,794.6950417702361,789.1809419633112,787.9840107679638
2023-10-16 15:09:49.282017,805.4095467242564,799.4695726318726,787.0632690790299,806.6364535227218
2023-10-16 15:09:49.282820,811.5525058833987,800.7119142106013,783.1970875411281,811.5338666478166
2023-10-16 15:09:49.283620,792.0596312788291,796.7416673668624,792.4445614370763,795.9240887609294
2023-10-16 15:09:49.283873,818.8262108476349,802.2496303394474,785.8038725552016,817.4975283796023
2023-10-16 15:09:49.285310,797.998728057686,797.9726326450298,791.9225258168188,800.7327270244499
2023-10-16 15:09:49.327499,774.0341581900592,793.0238788890125,795.9956165784675,781.3747204154612
2023-10-16 15:09:49.328120,786.3734010851101,795.5473922514132,791.2509250640124,791.2813483658533
2023-10-16 15:09:49.328379,809.367697567316,800.3793500266398,796.345093938243,810.0620520050359
2023-10-16 15:09:49.329021,801.0758997136365,798.6212681443284,792.8204653853091,803.250980799414
2023-10-16 15:09:49.329730,794.7665872929457,797.3302479111263,795.1716369260807,798.1837976763483
2023-10-16 15:09:49.330016,794.1856986445163,797.2186272084717,796.1681960256573,797.7351606155446
2023-10-16 15:09:49.330185,801.673886892788,798.7001847672965,787.9176078241655,803.6239088970522
2023-10-16 15:09:49.330346,793.8162925817946,797.1134508386174,793.1185060142257,797.3653814420938
2023-10-16 15:09:49.330577,813.8644676949727,801.2831658105384,792.9113550114413,813.6332139061076
2023-10-16 15:09:49.330730,797.1933600964699,797.8538198256493,797.1761059227831,800.1995168317343
2023-10-16 15:09:49.330901,812.1761252332864,800.9304086027112,792.7556115963376,812.2592583264171
2023-10-16 15:09:49.331103,771.2769824599204,792.4376467864719,794.6472193560049,779.1058681903637
2023-10-16 15:09:49.393301,776.3319908320661,793.4659673622791,792.112569835818,783.1507573789694
2023-10-16 15:09:49.394311,814.0405681815241,801.3655740971432,797.8413828770471,813.8892157973859
2023-10-16 15:09:49.394668,800.5143359932518,798.5536244930066,798.121252001777,802.9167428180746
2023-10-16 15:09:49.394869,805.084858607032,799.4256993358316,789.6150485861108,806.4314353453423
2023-10-16 15:09:49.395173,784.9260207934557,795.2758273204876,794.4403166730212,790.1796931485765
2023-10-16 15:09:49.396043,798.7531342957029,798.0930469504331,787.9837909649227,801.2547276875333
2023-10-16 15:09:49.396313,797.9825484377412,797.9479732318197,789.6287766934312,800.6669894003742
2023-10-16 15:09:49.396504,814.3701225129046,801.4187119913735,796.1785489650119,814.1185709118815
2023-10-16 15:09:49.397673,782.1791973378539,794.6684035874745,790.5770129293437,787.8615665059295
2023-10-16 15:09:49.398059,794.098278459141,797.1332834004851,788.9341386745343,797.4982974052336
2023-10-16 15:09:49.400148,788.9091073484819,796.0698569382415,790.6943343563514,793.3267504114023
2023-10-16 15:09:49.401121,810.3947597626424,800.5702269444704,793.8852189778829,810.8392767348541
2023-10-16 15:09:49.427229,813.5579211423391,801.2545197953473,796.6968347907551,813.4712145576185
2023-10-16 15:09:49.427634,793.3797633405248,797.0121801783177,791.9941474982562,796.9852758510676
2023-10-16 15:09:49.427833,816.3748749379089,801.8618327946793,798.9762120230046,815.8099382649959
2023-10-16 15:09:49.428010,811.7688458731503,800.8430126347772,792.4702494544028,811.9221357221052
2023-10-16 15:09:49.428304,797.3983258144827,797.9396795175804,801.8309095224886,800.4726358642253
2023-10-16 15:09:49.428501,813.6489049551487,801.2903655355145,798.5188607160335,813.5868502612865
2023-10-16 15:09:49.429118,795.5584137626397,797.4311281889837,788.2898215130454,798.6686744984522
2023-10-16 15:09:49.429324,792.4045505492419,796.9274830403588,804.7299554681852,796.4858050989295
2023-10-16 15:09:49.429454,799.4759762128923,798.25218222334,788.9237765077766,801.8629974186734
2023-10-16 15:09:49.429615,814.1603654477766,801.3281894404896,791.1288413563915,813.8325061036256
2023-10-16 15:09:49.429955,792.6115564371503,796.9774711240905,805.4747791746157,796.6709082574085
2023-10-16 15:09:49.430518,797.2509136081391,797.866339190106,797.2346639041043,800.2475744970087
2023-10-16 15:09:49.461072,789.9163444221539,796.2891356281426,791.7384117559399,794.1682435599964
2023-10-16 15:09:49.461905,816.070599023467,801.7131815139156,789.783295179147,815.3521342310413
2023-10-16 15:09:49.462223,814.3560335029192,801.3693061442758,791.1721424314148,813.9923178551009
2023-10-16 15:09:49.462433,820.2634046090683,802.6109118269715,792.507481190316,818.8178024030528
2023-10-16 15:09:49.462588,777.437388659688,793.7240970848679,795.1415427804694,784.1174468343992
2023-10-16 15:09:49.463327,798.6525520397533,798.0960755405968,790.5646329980899,801.2322769424649
2023-10-16 15:09:49.463623,793.3865391323296,797.0339554325145,794.1879925450841,797.0410894229822
2023-10-16 15:09:49.465425,803.0923703789297,799.040293932191,792.7598377838251,804.8863072515226
2023-10-16 15:09:49.467512,785.6258504451073,795.4268169510184,795.0186460290114,790.7609901659985
2023-10-16 15:09:49.467918,818.0849891241669,802.1936036437228,796.3831904519321,817.1385249674236
2023-10-16 15:09:49.468385,803.9382638553545,799.2313855379103,794.3840545180554,805.6101469578995
2023-10-16 15:09:49.470893,801.3154720435051,798.6696330334394,792.6604423971694,803.4417654587528
2023-10-16 15:09:49.528430,790.8881407177427,796.4812400628165,790.6495761573256,794.9320539324918
2023-10-16 15:09:49.529334,801.4553254731759,798.6100713689383,783.1093288373943,803.336234768331
2023-10-16 15:09:49.529954,812.6378051703507,800.9396370205322,783.4010093053824,812.4194526642805
2023-10-16 15:09:49.530260,800.1445505884415,798.3951391064603,789.3373813866888,802.4151475340565
2023-10-16 15:09:49.530630,783.7568697469031,794.9662596191674,787.2992687730926,789.0669501672946
2023-10-16 15:09:49.530824,808.1059696191114,800.0470460644619,788.8299410454962,808.865586998794
2023-10-16 15:09:49.530969,783.3314016505138,794.9033511969454,790.0595209780258,788.784912628513
2023-10-16 15:09:49.531163,794.882389876441,797.3146583760399,790.8965048672951,798.1797453678824
2023-10-16 15:09:49.531307,781.0758329126888,794.4341384437299,790.0732587786504,786.954441103111
2023-10-16 15:09:49.531456,812.8186346351476,801.0245535159451,788.4952307321859,812.6830585741847
2023-10-16 15:09:49.531633,790.6035572710852,796.4250715566127,790.9778999139327,794.7085947429624
2023-10-16 15:09:49.531791,791.2839469280865,796.5714976252608,791.5003768925761,795.2728318979998
2023-10-16 15:09:49.560325,774.1259522694746,792.8991294492802,780.4994550719994,781.0938369392111
2023-10-16 15:09:49.561650,773.267199848986,792.7469966053521,783.3602869746887,780.4624204664733
2023-10-16 15:09:49.563656,802.5169079142078,798.9284553250088,793.6112933049378,804.438746664783
2023-10-16 15:09:49.564442,795.1060380956784,797.3216362236589,786.6350311150411,798.2635418030659
2023-10-16 15:09:49.565397,805.359111217156,799.3737699220369,777.8735070464626,806.3847575103666
2023-10-16 15:09:49.566358,780.0703184652541,794.2722077083722,795.1683440640134,786.2551422690608
2023-10-16 15:09:49.569221,791.7245515732326,796.5794920595008,782.4852549649104,795.4237056414066
2023-10-16 15:09:49.570531,777.6408259885227,793.6816519799122,786.0090440549573,784.0731260941498
2023-10-16 15:09:49.571071,808.6968559246113,800.1935361774003,791.3655682433542,809.4033463732933
2023-10-16 15:09:49.571404,787.4192558114214,795.7824169811428,793.1256065851967,792.1732356094386
2023-10-16 15:09:49.572253,799.5007506949894,798.2177199907272,784.6560226960503,801.7852291767907
2023-10-16 15:09:49.574822,790.5089055402467,796.4556837010867,796.3972298103463,794.756055784517
2023-10-16 15:09:49.620727,788.4635638862143,796.0291219938172,796.2932087580942,793.0935194334647
2023-10-16 15:09:49.622372,801.402306436161,798.6203679706107,785.4069659695341,803.3458948069062
2023-10-16 15:09:49.622698,817.6217627293306,802.0666779350412,793.0935830243785,816.6870919786159
2023-10-16 15:09:49.622966,799.3814997425444,798.3099555972103,797.265105962758,801.9776141126215
2023-10-16 15:09:49.623437,813.6628596781092,801.2558290508879,794.485637094034,813.5056786380462
2023-10-16 15:09:49.623585,813.942454679858,801.2740262313621,790.1786915882071,813.6338427709567
2023-10-16 15:09:49.623736,799.782396170631,798.3558812931022,793.2261822917898,802.2103823008948
2023-10-16 15:09:49.623913,798.9537112734387,798.0972577430275,783.9413882771189,801.3248219902198
2023-10-16 15:09:49.624714,821.8822814658192,802.9173255859442,789.2280002700612,820.0565908138391
2023-10-16 15:09:49.625708,819.9088243502807,802.5419833897546,793.0302533009453,818.5419881141145
2023-10-16 15:09:49.627879,803.2149130529148,799.0509751298773,791.1636239193955,804.9491642478891
2023-10-16 15:09:49.631070,800.1447756671441,798.3772681350194,787.4071958637926,802.3710631779821
2023-10-16 15:09:49.678311,802.275951331275,798.7996601980154,785.1380429179914,804.0488421830183
2023-10-16 15:09:49.679353,820.6912368062784,802.6609120114556,788.3037041657766,819.0686528943776
2023-10-16 15:09:49.680277,808.4970236611615,800.1198819544119,787.9105235850977,809.1619094109752
2023-10-16 15:09:49.681094,787.7224521610918,795.7819308374685,786.2769775064602,792.2622651464291
2023-10-16 15:09:49.682359,826.0472559337243,803.7584324634934,786.476303596662,823.374084809149
2023-10-16 15:09:49.682964,826.0283941667581,803.693756006571,779.9318623810565,823.2086844051105
2023-10-16 15:09:49.683295,815.0877821734865,801.4125317600151,779.4261774493291,814.3168762480482
2023-10-16 15:09:49.683805,799.8606633808288,798.2660670709363,781.7966071863458,802.0117828706051
2023-10-16 15:09:49.684609,791.979258068645,796.6407285657441,783.3725816801448,795.6507943213666
2023-10-16 15:09:49.689451,811.1933219553449,800.6237367227194,781.7494595140976,811.209126347878
2023-10-16 15:09:49.689875,792.2101768349254,796.654897002881,779.7227380902909,795.7545192514334
2023-10-16 15:09:49.690096,807.1906866094478,799.7908351048701,781.7461710425121,807.9602157289626
2023-10-16 15:09:49.710486,803.5270499640709,799.1202514265682,791.6297082783988,805.2132068957014
2023-10-16 15:09:49.711433,809.2404013042637,800.3337617249932,794.2875132304747,809.9115401938351
2023-10-16 15:09:49.711974,790.256923705798,796.3478506723052,790.4292447421133,794.4146583701622
2023-10-16 15:09:49.712465,799.9124539833144,798.438210668243,799.1797732120799,802.4524870352915
2023-10-16 15:09:49.713049,821.3128479693775,802.7794621144747,787.1408004144862,819.5465284001205
2023-10-16 15:09:49.713311,816.6863192899706,801.8383594928158,789.4664222612342,815.8446311953961
2023-10-16 15:09:49.713640,812.1774623119873,800.8512000907352,784.1929482852555,812.0639667158323
2023-10-16 15:09:49.714166,804.8258694364902,799.4002370163523,792.6774736882387,806.2914544889597
2023-10-16 15:09:49.715810,819.6420845010272,802.4781678787085,792.1348368756713,818.3049467431005
2023-10-16 15:09:49.716450,834.2528309505064,805.5353736556992,793.9652577736131,830.2060893732083
2023-10-16 15:09:49.719857,796.7588414514524,797.6664095758224,786.7273405355387,799.6071964122123
2023-10-16 15:09:49.722618,803.0791717067506,799.1286579408534,802.5746538539079,805.1006880974574
2023-10-16 15:09:49.736270,813.8198653659151,801.3266531476911,798.5957817118169,813.7273785014941
2023-10-16 15:09:49.737150,802.2121446046559,798.9133614537689,798.8166980727756,804.3107594145038
2023-10-16 15:09:49.737905,816.6275681109348,801.9162739095887,799.1766384207926,816.0196393504104
2023-10-16 15:09:49.738218,831.5363562994593,804.9637311925779,793.2761913093293,827.985394307703
2023-10-16 15:09:49.739283,787.9908588107393,795.826207553514,785.0302263276545,792.4515307535167
2023-10-16 15:09:49.739634,828.8735004663018,804.4172289133164,794.0934510965997,825.8427664650724
2023-10-16 15:09:49.739879,816.457090178809,801.8586576403371,796.7912849552655,815.826560929824
2023-10-16 15:09:49.740106,791.405588149257,796.5833891587196,790.0547521671288,795.3384108332383
2023-10-16 15:09:49.740333,809.4655268396468,800.3811176186359,794.342627074937,810.0955327324037
2023-10-16 15:09:49.740599,798.7535937399317,798.1769950272156,797.0167514833935,801.4622633271639
2023-10-16 15:09:49.741646,810.4498801805921,800.5285266104606,788.1575292865962,810.7526572018841
2023-10-16 15:09:49.741971,802.1620971895692,798.9202837871692,800.684234045663,804.3129674631787
2023-10-16 15:09:49.788142,778.4434784990444,793.9449683187502,796.3828917665556,784.9625330468084
2023-10-16 15:09:49.789579,782.7004490075213,794.8161338428487,794.8071201650037,788.3816666102923
2023-10-16 15:09:49.790171,807.6985026381822,799.9840562011913,791.177918326817,808.5887053483171
2023-10-16 15:09:49.790672,789.1242358278998,796.082342978471,787.2172006935166,793.4216197203843
2023-10-16 15:09:49.791020,793.286139040862,797.0452723390353,797.657605489139,797.0391696872867
2023-10-16 15:09:49.791264,795.8684063865878,797.5183976745266,790.742276972624,798.9765322956586
2023-10-16 15:09:49.791608,794.1930932644862,797.1747760554672,791.2786021773209,797.6290242560009
2023-10-16 15:09:49.792781,790.9071821533018,796.5009939113289,792.3507274289015,794.9865237261196
2023-10-16 15:09:49.793126,780.0557766748797,794.2410592589489,792.138854619385,786.1738604947034
2023-10-16 15:09:49.793666,780.7952165884041,794.3658581520749,789.0079227607894,786.7022396064876
2023-10-16 15:09:49.793937,795.9520365752307,797.5725693908238,794.7032925553818,799.1352550327175
2023-10-16 15:09:49.794484,802.2121679392062,798.7713053416813,783.5132606209187,803.9598079576643
2023-10-16 15:09:49.845509,805.4045110953402,799.5047297762385,790.9634280933636,806.7218128274977
2023-10-16 15:09:49.845835,805.5667783659298,799.5629681726912,793.5998449079194,806.9139847764634
2023-10-16 15:09:49.846140,809.9231078243444,800.4514735556252,791.6648317930934,810.4055265433811
2023-10-16 15:09:49.846283,787.4580542290305,795.7349510861435,787.1426888339388,792.0675145094667
2023-10-16 15:09:49.846408,824.0473685924189,803.3423490353697,786.4821738315378,821.7509628002936
2023-10-16 15:09:49.846547,823.1394593901427,803.1603317228121,787.2255858794837,821.0310859484526
2023-10-16 15:09:49.846938,786.049692330363,795.4931389320278,792.6625696459868,791.0509771557008
2023-10-16 15:09:49.847099,813.6169707294804,801.2124614259524,790.8425021436022,813.384879788455
2023-10-16 15:09:49.847867,794.3247881905328,797.2512496190593,796.5646825995722,797.8571490476285
2023-10-16 15:09:49.849134,811.6347772154263,800.7920801823415,789.988778881219,811.7564054060529
2023-10-16 15:09:49.849716,802.4879728456597,798.9044757177885,791.6766940466397,804.3708925491896
2023-10-16 15:09:49.850174,815.2971767257652,801.5822039983584,793.010366273334,814.7983773659993
2023-10-16 15:09:49.877523,804.4216416377907,799.3764648030483,799.1775426698205,806.1124264392969
2023-10-16 15:09:49.878249,816.5144777722421,801.859442876765,795.5895097448877,815.8455793299557
2023-10-16 15:09:49.878721,805.1088008665292,799.5154673994336,798.7485878126901,806.6603380575519
2023-10-16 15:09:49.879119,813.3715087759484,801.16777840547,791.53117046537,813.2014386736281
2023-10-16 15:09:49.879622,822.6913125760938,803.1461584267008,795.7441539392936,820.8627024117336
2023-10-16 15:09:49.880793,818.9826234409147,802.3774030139408,796.0620649587414,817.8597467188602
2023-10-16 15:09:49.881139,817.396415548791,801.9972537335685,790.6661414487029,816.4485123610468
2023-10-16 15:09:49.881291,817.7679392386934,802.0675805594136,789.9142166201764,816.7328237843329
2023-10-16 15:09:49.881412,811.3679071000852,800.7464437638731,791.0546148939942,811.5642378394492
2023-10-16 15:09:49.882648,820.9491100659436,802.8310397717332,800.8502954831744,819.5657065670073
2023-10-16 15:09:49.883864,819.2750383557474,802.389831684884,790.8463468790274,817.9774745713007
2023-10-16 15:09:49.884087,813.0303907817078,801.1265858651418,794.7400147022591,812.998153972606
2023-10-16 15:09:49.944176,778.0116586969888,793.8410995446969,794.8730890740758,784.5774101742762
2023-10-16 15:09:49.944552,793.8409076485585,797.1708845450684,798.7537636623341,797.5146003533454
2023-10-16 15:09:49.944797,793.8379838895454,797.1671076313446,798.4124349170734,797.5043991502258
2023-10-16 15:09:49.945367,804.9735899094503,799.5289441900629,803.2311716183299,806.6533948098568
2023-10-16 15:09:49.945639,799.1779165661901,798.2711136307322,797.6442700797961,801.8210667170613
2023-10-16 15:09:49.945795,785.1038625213329,795.3717789415331,800.7902620126957,790.4696728739923
2023-10-16 15:09:49.946695,806.6022195452115,799.7987405563308,795.7884905737773,807.8046200959072
2023-10-16 15:09:49.947188,799.3841194168153,798.3590624963645,802.4963979458632,802.0997153502688
2023-10-16 15:09:49.947402,807.745009403276,800.1370073013798,806.612022636597,808.9804208044562
2023-10-16 15:09:49.948680,803.2090940413152,799.1476900719309,801.7126217192327,805.1863727618882
2023-10-16 15:09:49.950796,805.192366290553,799.6115071975022,807.2212705678878,806.9224792034285
2023-10-16 15:09:49.951156,800.0629526572563,798.4511075793715,797.1956016359075,802.5291377343796
2023-10-16 15:09:50.011478,793.6299480045332,797.1069748991132,796.5978724538605,797.2939264859566
2023-10-16 15:09:50.012156,778.0489677479841,793.8108479755684,790.777959558931,784.5137748975529
2023-10-16 15:09:50.012839,794.7016345143097,797.2926555877322,792.5779659471023,798.0715937109906
2023-10-16 15:09:50.013476,792.8135071416647,796.8797374211687,790.4196707165197,796.4895512039323
2023-10-16 15:09:50.013825,788.4185239169208,795.9646532739047,790.3579400862404,792.9208416795392
2023-10-16 15:09:50.014797,787.60564767283,795.8129981072344,792.241897857083,792.3042579899214
2023-10-16 15:09:50.015854,795.3495262284829,797.3956764250595,789.1530924475464,798.5189242422149
2023-10-16 15:09:50.017107,787.6111284826832,795.8352475211761,794.5158489990546,792.3608576189215
2023-10-16 15:09:50.020405,794.6495965736871,797.3161645672548,796.2769073744896,798.1141877174942
2023-10-16 15:09:50.020644,802.2594232307969,798.9276628758859,799.2975426088519,804.3601619793739
2023-10-16 15:09:50.020771,804.9409592233352,799.4871644764366,799.4619046055911,806.5404646238143
2023-10-16 15:09:50.021897,801.2970150556976,798.6189650163467,787.6159791699363,803.311094232168
2023-10-16 15:09:50.043675,806.5990762589902,799.7969079065449,795.66152734696,807.7991569861354
2023-10-16 15:09:50.045264,799.7618907345685,798.3507715520913,793.1353753440652,802.1916559961462
2023-10-16 15:09:50.045702,797.0099216127611,797.8239445521647,798.0696511588604,800.0711172226091
2023-10-16 15:09:50.045901,792.7259241681396,796.8586141415353,790.1073824486921,796.4113003310632
2023-10-16 15:09:50.046030,784.9879082759844,795.2921769781543,794.8143432488602,790.2385035703174
2023-10-16 15:09:50.046145,794.7612433861924,797.2994264852048,791.9712019034417,798.1060611042424
2023-10-16 15:09:50.046959,811.5648058947388,800.8070015829121,793.1646116372666,811.7724463326756
2023-10-16 15:09:50.047175,797.0525426753833,797.7816207329463,792.5549745982883,799.9792375495092
2023-10-16 15:09:50.047325,799.3692187822536,798.261842441812,792.3574258021498,801.8550928022676
2023-10-16 15:09:50.047456,814.6385329124934,801.3810853997913,786.1087261989608,814.1054904534558
2023-10-16 15:09:50.047651,799.1791724634272,798.2148952528736,791.5600256877129,801.6825494937159
2023-10-16 15:09:50.047796,799.44460067086,798.223107823775,786.4950477487004,801.7818300241482
2023-10-16 15:09:50.078285,809.0030511419137,800.2852746409395,794.3845621218013,809.7211149566406
2023-10-16 15:09:50.078919,807.8473245554547,800.0253878952067,792.2944527963127,808.7351069360332
2023-10-16 15:09:50.079154,808.2962081953158,800.1032052965382,790.615393780265,809.060946444423
2023-10-16 15:09:50.079269,804.125755424735,799.2726280945284,794.6241920033557,805.7678363319018
2023-10-16 15:09:50.079368,811.4662753579587,800.7608915805346,790.4060365047708,811.6292062461825
2023-10-16 15:09:50.079718,800.7951715350804,798.6111938047268,798.0278399157103,803.1425474157156
2023-10-16 15:09:50.079845,807.0541019720632,799.8835120179873,794.7913348450268,808.1485324725445
2023-10-16 15:09:50.079947,800.3613193000881,798.467112267472,792.2316977755437,802.6574715796527
2023-10-16 15:09:50.080168,800.0185928785978,798.3767621946776,790.1811281043591,802.3322614932075
2023-10-16 15:09:50.080754,816.2933270583568,801.8024214236115,794.4040818542599,815.63889032785
2023-10-16 15:09:50.086202,803.4654436407898,799.1368076375638,794.7941455195655,805.2357761278088
2023-10-16 15:09:50.088534,806.5730390626909,799.7690355461773,793.2426265658489,807.7225479839783
2023-10-16 15:09:50.144459,806.3291989822291,799.7474765122029,796.3859583757013,807.5967187723769
2023-10-16 15:09:50.145140,807.9420850712254,800.0495160242311,792.7695494740623,808.822917496179
2023-10-16 15:09:50.145508,803.6807890458829,799.171360924188,793.6893310343553,805.3852284889421
2023-10-16 15:09:50.145733,816.7165656775018,801.8690306543871,792.0924717253653,815.929407455142
2023-10-16 15:09:50.145944,805.8991450265364,799.5355257112462,783.1934983054845,806.9450980871625
2023-10-16 15:09:50.146107,810.5420537510138,800.5627883713113,789.7822530734474,810.864733656112
2023-10-16 15:09:50.146699,794.4934702370574,797.152244622438,782.1183541522419,797.6627505030876
2023-10-16 15:09:50.147043,804.627664483234,799.2477179126635,780.6902775564507,805.8556612506237
2023-10-16 15:09:50.147280,809.2919345350676,800.2987990278601,789.3660398052431,809.8404988698011
2023-10-16 15:09:50.147422,796.6943460766171,797.604033332758,781.4535829382095,799.433898364549
2023-10-16 15:09:50.147863,803.7219969623155,799.1376668344548,789.1359634060791,805.3142485463982
2023-10-16 15:09:50.148021,810.0147217942676,800.4569175160374,790.1977179669259,810.4462403053484
2023-10-16 15:09:50.177289,822.1573625980357,803.066100720758,799.0886711793468,820.5060125321479
2023-10-16 15:09:50.177669,796.0933896211401,797.5846472221062,792.8358887370251,799.2071604251073
2023-10-16 15:09:50.177899,797.6021591364803,797.8743794937387,790.2275012404341,800.371968481607
2023-10-16 15:09:50.178592,792.7547037322328,796.8911617875561,792.9684545354853,796.5002760380542
2023-10-16 15:09:50.179093,794.2770217081091,797.2484563227604,797.3344798950029,797.836032833579
2023-10-16 15:09:50.179296,796.8952829993146,797.6621825918133,783.2136027685697,799.6373580998008
2023-10-16 15:09:50.179907,799.8630662295641,798.3903403803787,795.130018466901,802.3195228418415
2023-10-16 15:09:50.180660,796.7437350756619,797.7393164780954,794.9198104442271,799.7828217933576
2023-10-16 15:09:50.182439,770.5097993377898,792.2945289667758,796.4266295943635,778.5239747192187
2023-10-16 15:09:50.183141,784.7564054933454,795.2763583770567,798.2995148035363,790.130528006219
2023-10-16 15:09:50.186510,791.408419434539,796.6285261816981,794.8536481426531,795.4507672215185
2023-10-16 15:09:50.187248,802.5574955018889,798.9311899774528,792.9960962428127,804.4575815718497
2023-10-16 15:09:50.211242,790.2419772487692,796.4647663496214,803.3589504342971,794.6990577403993
2023-10-16 15:09:50.211860,792.7916105666956,797.0319335216974,807.3057295543049,796.8590446991143
2023-10-16 15:09:50.212186,784.599388935173,795.2847785526951,802.7261583171819,790.1046027785586
2023-10-16 15:09:50.213194,805.4828220543221,799.6731763053386,807.3538658304045,807.1612755581277
2023-10-16 15:09:50.213786,788.3183827389805,796.044596507774,801.2144817199086,793.088544577411
2023-10-16 15:09:50.214471,786.6790183756951,795.7360225450927,804.7204910344981,791.8383222117938
2023-10-16 15:09:50.214681,803.5430038205028,799.2210935808039,802.1352607016847,805.4670915013188
2023-10-16 15:09:50.214944,784.4421871742942,795.3048380265345,808.4107900400976,790.1073780402515
2023-10-16 15:09:50.215218,791.3395084673675,796.6603404411894,799.8254863593561,795.5088585586848
2023-10-16 15:09:50.215684,781.7523106137716,794.7138014224877,805.0362945615036,787.846684086251
2023-10-16 15:09:50.215958,788.6392807869885,796.1262207626322,802.8143587368677,793.3857009143164
2023-10-16 15:09:50.216110,792.7296382088114,796.8960092721309,794.0525001500913,796.5047926020316
2023-10-16 15:09:50.280556,796.3473111155902,797.6712962587304,796.4783620170477,799.4967987167548
2023-10-16 15:09:50.281083,794.1068879547145,797.1476737151539,790.2913421284217,797.5364117341205
2023-10-16 15:09:50.281431,793.7463583736696,797.0958160978513,792.7864149501678,797.3010014548419
2023-10-16 15:09:50.281773,794.403549970828,797.1930298062603,788.527511415644,797.7367527405877
2023-10-16 15:09:50.282076,777.6641666501633,793.748749621315,792.7139099019655,784.2458410935004
2023-10-16 15:09:50.282451,778.1392247578387,793.8295196298068,790.7662083424957,784.5867646659128
2023-10-16 15:09:50.282687,794.5795756699033,797.2708361553447,792.9634745516412,797.9813630043209
2023-10-16 15:09:50.282888,785.908119235705,795.483005609529,794.7443770491718,790.9838103063557
2023-10-16 15:09:50.283037,796.1394092311784,797.5898240897511,792.3620171154562,799.2336455339396
2023-10-16 15:09:50.283676,786.4227926206651,795.5901612513302,794.751061677244,791.4017106377289
2023-10-16 15:09:50.284063,792.6684701918085,796.863551719572,791.9271326107944,796.4064007422138
2023-10-16 15:09:50.285658,792.1697295701764,796.7457122058886,790.412395075257,795.9668468015832
2023-10-16 15:09:50.310374,781.7825873412804,794.5956758113416,791.6326156872937,787.5638577554332
2023-10-16 15:09:50.311509,800.0011219171073,798.4179196286974,795.0064075594589,802.4287441559034
2023-10-16 15:09:50.311844,793.3875739154765,797.0012145962072,790.6378094045294,796.9605091134038
2023-10-16 15:09:50.312030,805.4886122816937,799.5402278974676,792.9022836100224,806.8345414621953
2023-10-16 15:09:50.312197,780.6791422829091,794.2852257581251,782.9236926390445,786.4684888307843
2023-10-16 15:09:50.313093,786.3308626653461,795.4384862977929,780.4726073344311,790.9996301365043
2023-10-16 15:09:50.313712,793.8261298953636,797.0241443608942,783.2775091070175,797.1476718349876
2023-10-16 15:09:50.313890,791.1314073834706,796.5163625835386,788.9802165983094,795.0912219290586
2023-10-16 15:09:50.314003,792.8981060688227,796.8770595379594,788.234880681985,796.5081117877465
2023-10-16 15:09:50.314207,787.0768104108437,795.6518348790988,786.7347651092831,791.7487134404165
2023-10-16 15:09:50.314386,810.4965237148486,800.6059239885071,795.449585841877,810.9577532219657
2023-10-16 15:09:50.314587,791.8269724758785,796.6905779510301,792.1561170333356,795.7286304408235
2023-10-16 15:09:50.361148,798.5263532652889,798.0250038452992,785.7372674928826,801.019133443139
2023-10-16 15:09:50.361662,783.1023733164778,794.911509798717,796.0721574718627,788.736910616027
2023-10-16 15:09:50.362803,790.9267032350606,796.5393579389078,796.0458982749805,795.0871138585521
2023-10-16 15:09:50.363044,783.8399804939912,795.0933233765269,799.1241817648598,789.4056026103791
2023-10-16 15:09:50.363631,787.9015152301582,795.849848934129,789.5796504540658,792.4833497864629
2023-10-16 15:09:50.363860,781.7847379851569,794.5184485101961,783.2651408257902,787.3737029638601
2023-10-16 15:09:50.364226,782.6645206058458,794.8168150115379,795.6858472323112,788.3726572641519
2023-10-16 15:09:50.365148,786.2430934202032,795.5179374747095,790.998820912093,791.1697992380058
2023-10-16 15:09:50.366348,791.0147174851203,796.5294524229192,793.0059598439556,795.0888345218495
2023-10-16 15:09:50.366645,793.6311818799451,796.9705832425716,781.8775005487591,796.9573296708645
2023-10-16 15:09:50.366824,786.9242795797394,795.702486246599,795.6101906523362,791.8284579240758
2023-10-16 15:09:50.367195,797.2614660491705,797.7874623627863,788.5011653434312,800.0558448059719
2023-10-16 15:09:50.428316,796.099424642629,797.6152821811783,796.0007451285131,799.2846419936084
2023-10-16 15:09:50.428727,793.0451509175039,796.9992969415049,798.106770647878,796.8538670774077
2023-10-16 15:09:50.430635,787.9175920240242,795.9332184970134,798.2002221591976,792.694103861606
2023-10-16 15:09:50.430877,799.1502925952233,798.2170464444783,792.4391146300733,801.6792695584872
2023-10-16 15:09:50.431098,798.4592211347917,798.1075197163723,796.1310348768462,801.2030156220566
2023-10-16 15:09:50.431303,794.8786522727365,797.3136173719247,790.8681430715679,798.1760612000367
2023-10-16 15:09:50.431469,782.7704864689103,794.8318487889082,794.9300879686642,788.4413343540674
2023-10-16 15:09:50.431676,777.737174133503,793.8044796080703,797.0809011998513,784.405252339625
2023-10-16 15:09:50.431901,795.3214600286047,797.4752592631488,798.3552230713833,798.7071861193136
2023-10-16 15:09:50.433361,783.5431513704145,794.9808678381889,793.6635082185488,789.0394385432929
2023-10-16 15:09:50.434807,797.3594343156429,797.8083344380556,788.5536025392004,800.1365657039019
2023-10-16 15:09:50.435429,799.0811755614545,798.1679810204193,788.7028537009774,801.53748131571
2023-10-16 15:09:50.462389,796.8030700288598,797.6994113863784,789.2910418312794,799.7018917540549
2023-10-16 15:09:50.462760,787.6168275830538,795.8432043324425,795.2452445309707,792.3822114528045
2023-10-16 15:09:50.462979,798.5725005168138,798.0914521464858,791.8609652936638,801.1970313997241
2023-10-16 15:09:50.463463,787.2166471852324,795.7577918376846,795.0144250218884,792.05210177751
2023-10-16 15:09:50.463712,802.3150770665499,798.8545353661647,790.1724214139708,804.1960584112319
2023-10-16 15:09:50.463989,789.9876240192026,796.2946772087312,790.73761657798,794.2031470327782
2023-10-16 15:09:50.464217,797.3155730121931,797.7847468778839,786.9958134630903,800.065238149191
2023-10-16 15:09:50.464572,792.4679478401989,796.7835556920268,787.804389224471,796.149090591181
2023-10-16 15:09:50.464808,799.0989681776881,798.168289535654,788.3372601857471,801.5435385661812
2023-10-16 15:09:50.466366,806.6193106424347,799.7262269123925,787.593895924068,807.6305569326252
2023-10-16 15:09:50.467574,800.4657396802189,798.4830013513606,791.6027185009674,802.7278018247476
2023-10-16 15:09:50.467850,798.6626873886152,798.0528166637297,785.6774072992501,801.1284194727641
2023-10-16 15:09:50.497064,799.317676837938,798.1910187297225,785.8833133900616,801.6647796737011
2023-10-16 15:09:50.498530,798.9876908251753,798.1433752016,788.1477010857744,801.4488702626612
2023-10-16 15:09:50.501586,793.4197586569176,797.0219471574663,792.1497798387803,797.0213082970473
2023-10-16 15:09:50.502078,799.355299092035,798.2467580139003,791.044479389567,801.8136833211664
2023-10-16 15:09:50.502377,794.5914805590199,797.2620599775914,791.7512132224383,797.9632237845191
2023-10-16 15:09:50.502608,802.1062242493778,798.7894741561312,787.8452533043633,803.9731665208079
2023-10-16 15:09:50.502772,805.3059466154764,799.4754633463286,790.0200781336229,806.6201757259945
2023-10-16 15:09:50.503031,801.2961937059096,798.6405742821239,789.9622359770125,803.3642368263532
2023-10-16 15:09:50.503307,808.5799797977097,800.1380986451476,788.0134134869857,809.2316024396182
2023-10-16 15:09:50.503529,799.1086549078587,798.1969180672589,791.2041208968931,801.6171498723584
2023-10-16 15:09:50.507240,802.5105675279639,798.8771735063968,788.2291105021167,804.3101648783257
2023-10-16 15:09:50.514445,802.5947554194823,798.8876588395767,787.4715340321297,804.3611236781269
2023-10-16 15:09:50.561369,806.630718934139,799.8117838693809,796.5547496442032,807.8453257637844
2023-10-16 15:09:50.561976,808.0139005795213,800.1002181118713,796.6216317472262,808.9695522776926
2023-10-16 15:09:50.562411,802.557966488311,798.9329482176706,793.1749443399679,804.4620655774835
2023-10-16 15:09:50.562799,809.9680344171572,800.5445305437155,800.6822968754643,810.6487996394277
2023-10-16 15:09:50.562995,799.5117565531376,798.3454247519303,798.1662455062327,802.1040069987921
2023-10-16 15:09:50.563248,796.6543084437876,797.6995397557007,792.6394168870681,799.657937768955
2023-10-16 15:09:50.563434,798.7906262568054,798.1706292506736,795.5009040925629,801.457557080729
2023-10-16 15:09:50.563584,804.4579084038638,799.3187128689729,792.1433150873117,805.9805396302341
2023-10-16 15:09:50.567446,803.3745007512988,799.1443597710288,797.6462136958353,805.2273697307659
2023-10-16 15:09:50.568064,802.0720334886228,798.8710990354318,797.4046459854228,804.1646507306632
2023-10-16 15:09:50.568321,804.408295362306,799.3478168883889,796.3906240064014,806.0376781732302
2023-10-16 15:09:50.569807,806.1448959604519,799.7249269337075,798.0880389087733,807.4861604606253
2023-10-16 15:09:50.595311,798.2882528149091,798.1381293441809,803.2607585408527,801.2277587924136
2023-10-16 15:09:50.596212,802.9630160719506,799.0505842423023,796.7678807748634,804.8732345333858
2023-10-16 15:09:50.597162,807.5237887060696,799.8965934669462,785.6723228093089,808.3206287675138
2023-10-16 15:09:50.597762,813.7599330483864,801.2139604274809,787.7994274122229,813.4311284445773
2023-10-16 15:09:50.598550,813.1641269655935,801.0710922972193,785.7642548987067,812.900853286851
2023-10-16 15:09:50.599245,803.0673783700522,799.0526893615387,794.6553336277893,804.909493357145
2023-10-16 15:09:50.602223,823.7282818650201,803.2584371557512,784.5952623014131,821.4486937902263
2023-10-16 15:09:50.603066,796.3053767646176,797.671468521307,797.4368930597444,799.484744728962
2023-10-16 15:09:50.609727,806.3939566278945,799.7594254442059,796.2215834865508,807.6455110838972
2023-10-16 15:09:50.610662,800.9996797843377,798.622291221903,794.6391740485285,803.2308254878815
2023-10-16 15:09:50.614349,800.1821320093671,798.4400446047013,793.3323992090963,802.5372734921883
2023-10-16 15:09:50.619929,801.8494630980073,798.8094361093966,795.7510406361456,803.9460721902952
2023-10-16 15:09:50.630030,775.7256628402886,793.4152516549057,800.2403175263404,782.845019177571
2023-10-16 15:09:50.630692,803.3009963158461,799.0572495135407,789.9099398335359,804.9902836952341
2023-10-16 15:09:50.631094,780.9564953958397,794.5028954247578,800.1550607593749,787.0887948828616
2023-10-16 15:09:50.631446,781.1677877152612,794.5260814282485,797.9165635527872,787.2089574791178
2023-10-16 15:09:50.632489,788.9303891705956,796.1523905776622,799.1081840246857,793.5369882912552
2023-10-16 15:09:50.633554,766.1687558831378,791.4339191433461,801.0240346041747,775.1058997374616
2023-10-16 15:09:50.634604,790.2754027766942,796.3991571935227,795.5419954646937,794.5469136325144
2023-10-16 15:09:50.635144,782.6626519557236,794.7583475416537,789.4293585698957,788.2276536613994
2023-10-16 15:09:50.637390,784.2310658636883,795.2198774757852,803.9908258253078,789.8346485004133
2023-10-16 15:09:50.639292,787.3607026744893,795.6877582151498,784.2410349640504,791.9219499917494
2023-10-16 15:09:50.639644,780.1131775620842,794.2847341982089,795.5570504249011,786.2988445116092
2023-10-16 15:09:50.639880,766.9980391478933,791.5730683618924,797.4251111368678,775.6964694038672
2023-10-16 15:09:50.677112,788.1808153550617,796.0111137560535,800.6911955511621,792.96488361159
2023-10-16 15:09:50.677904,788.6944907900934,796.082095176576,796.8234020546354,793.2931163066838
2023-10-16 15:09:50.679526,792.1190588182626,796.82247473246,799.8173987190496,796.1414138585146
2023-10-16 15:09:50.680336,797.7429902922377,797.9041974975394,790.2828458445518,800.4875467527999
2023-10-16 15:09:50.680621,788.8375924440903,796.0157050882189,786.46389023107,793.1716822378744
2023-10-16 15:09:50.681063,788.0476090429287,795.9130468609661,793.1128639800451,792.6829613751996
2023-10-16 15:09:50.681309,789.5974293607627,796.2737488498267,797.2294800825866,794.0353211336208
2023-10-16 15:09:50.684626,784.9724979016498,795.1994296686488,785.1686210453703,790.0047795178156
2023-10-16 15:09:50.684980,781.7872200650751,794.5435637767639,785.9150319749752,787.4364904432125
2023-10-16 15:09:50.686592,793.2999115091931,796.9698834503562,789.2276650318015,796.8570154373818
2023-10-16 15:09:50.686875,798.2382368346719,798.1084108238803,801.1804746305203,801.1394527032888
2023-10-16 15:09:50.687035,809.476778413465,800.4646317766321,803.0869343180268,810.3052080635409
2023-10-16 15:09:50.744566,789.968102489464,796.2726611206638,788.8035283192448,794.1429453615681
2023-10-16 15:09:50.745049,807.9411956321695,800.0276392178654,790.4328199797609,808.7686047993411
2023-10-16 15:09:50.745783,807.8765345779732,799.9962842431001,788.5045247447613,808.6718974056844
2023-10-16 15:09:50.749084,806.7053450948017,799.768133113102,790.179723301124,807.7596924594
2023-10-16 15:09:50.750447,804.6143312664049,799.3672417141539,793.8647805692856,806.1469842495953
2023-10-16 15:09:50.750742,796.4122450782927,797.5566323518943,782.6707384001359,799.2328386593434
2023-10-16 15:09:50.751653,799.0759244537154,798.121334113041,783.7955475067275,801.4206745307532
2023-10-16 15:09:50.753129,806.2809798188076,799.6903536395865,791.3132797776099,807.4412432666529
2023-10-16 15:09:50.754926,807.8509744619453,799.9793574295427,787.2540328758402,808.6224720312066
2023-10-16 15:09:50.755281,806.2065348418663,799.6497766191079,788.6108551654771,807.3188405648464
2023-10-16 15:09:50.755673,802.9631481222704,798.9530768967971,786.2609971241135,804.6323759101953
2023-10-16 15:09:50.756488,793.4660072859547,797.0261039310838,791.5608856180745,797.0453413561272
2023-10-16 15:09:50.778957,799.1314141910868,798.1819836516901,789.0851615771334,801.5870265900409
2023-10-16 15:09:50.779348,801.9474475519556,798.7537242767985,787.553156785891,803.8375926298364
2023-10-16 15:09:50.779575,803.2945064116382,799.0376272921761,787.9416207545285,804.9398744034834
2023-10-16 15:09:50.779735,803.3494404134503,798.9969554185748,782.3288999669712,804.8557402684469
2023-10-16 15:09:50.779872,803.4189121080076,799.0435883081102,785.7951676349834,804.9916243306936
2023-10-16 15:09:50.780008,802.25566477449,798.8136710547334,787.1020852948014,804.077419634236
2023-10-16 15:09:50.780200,803.9864523647185,799.1658667075822,786.2459120930328,805.4626194371018
2023-10-16 15:09:50.780351,801.6570107709593,798.7185977488722,790.2794204391283,803.6643770078408
2023-10-16 15:09:50.781626,797.8068233936211,798.0128135862216,800.5526097880874,800.7748861046015
2023-10-16 15:09:50.783289,802.6816586797046,798.8752701629991,784.1890017824215,804.3563789115806
2023-10-16 15:09:50.787392,796.7129152733967,797.7222088032718,793.7677332309323,799.7313843185772
2023-10-16 15:09:50.788649,799.3298797398384,798.2381102640601,790.6826897072157,801.7847537760986
2023-10-16 15:09:50.844413,796.7307623849881,797.7598930660474,797.4271994648282,799.8297968801273
2023-10-16 15:09:50.846450,788.387902438976,795.9696088722964,791.578170998398,792.9239719052016
2023-10-16 15:09:50.846931,793.9000357697079,797.023140992497,781.5127940107031,797.1671871814572
2023-10-16 15:09:50.847294,792.6906281885391,796.7997792276252,784.5605971730871,796.2554410334088
2023-10-16 15:09:50.847536,798.1810448332204,797.9120932281564,781.3142526630411,800.6374177372651
2023-10-16 15:09:50.847688,794.6639392897184,797.2195480027012,785.5474452138654,797.8797588873892
2023-10-16 15:09:50.847809,799.4754099298042,798.2790164693251,791.8271739396956,801.9291245565662
2023-10-16 15:09:50.847933,793.3481185474277,796.9732916437141,788.5142319513562,796.8797819010704
2023-10-16 15:09:50.848058,802.4020908007531,798.800790996641,782.4323941960339,804.0891747271244
2023-10-16 15:09:50.848210,799.8810658211003,798.2973230722098,784.7063139348419,802.0950744753234
2023-10-16 15:09:50.848361,797.9249625924721,797.8562016716699,781.0335454859513,800.4231246670219
2023-10-16 15:09:50.848473,792.3788749575351,796.7572744023307,786.9698541077473,796.0576531420176
2023-10-16 15:09:50.870298,787.3544419950637,795.6871271213412,784.3133862099951,791.918527670704
2023-10-16 15:09:50.870699,801.5656317382495,798.7147936158774,791.9179175417012,803.6277844576289
2023-10-16 15:09:50.870947,799.1503860678268,798.1322974693853,783.3074839561947,801.4699197969676
2023-10-16 15:09:50.871119,803.2805414600376,799.0056825359277,784.8134195503906,804.8567969699035
2023-10-16 15:09:50.871262,822.964546967757,803.1662792355859,791.7870056699395,820.9937260835222
2023-10-16 15:09:50.871401,796.4082904764288,797.602447151891,787.694755719189,799.3448500721241
2023-10-16 15:09:50.872460,786.389888370566,795.6274189539887,799.5021877089698,791.4839658595004
2023-10-16 15:09:50.873976,809.9544563085342,800.6363761354993,810.8806697296219,810.8716690320828
2023-10-16 15:09:50.874822,802.3463977861788,798.8866773199038,792.932829577649,804.2847880728281
2023-10-16 15:09:50.875074,806.9160156841969,799.822225537098,791.2845390893267,807.9560262513903
2023-10-16 15:09:50.875218,793.6168711134126,797.1770753915825,804.4425317947592,797.4632224285974
2023-10-16 15:09:50.881748,835.9898444989681,806.0071645359748,805.85285568219,831.8886094058855
2023-10-16 15:09:50.931559,776.5411981473951,793.5649550006003,798.0864970522966,783.4575721043492
2023-10-16 15:09:50.932175,775.0029625189438,793.2484676767776,798.4732056120152,782.2178949862649
2023-10-16 15:09:50.933806,755.731731032148,789.4652452463079,822.8995653955687,767.1361329843876
2023-10-16 15:09:50.934166,741.6571122599523,786.4077145645591,809.0166420015016,755.3937381067143
2023-10-16 15:09:50.934415,753.4284659653813,788.9718033703303,821.3723656826864,765.2316075888782
2023-10-16 15:09:50.934969,766.1966224451425,791.4809441094812,805.4651331023385,775.2303708507372
2023-10-16 15:09:50.935545,738.8503365381162,785.8665171621169,813.6313847547536,753.2213860390482
2023-10-16 15:09:50.935786,762.5928058400457,790.8351140609662,816.6743525525529,772.5623197051481
2023-10-16 15:09:50.935935,752.6931137004677,788.6836702238601,806.8165812276646,764.3009175888831
2023-10-16 15:09:50.936075,745.3715182396512,787.2673406374329,818.3595762849709,758.6228967000943
2023-10-16 15:09:50.936199,752.2520752497385,788.6617930450676,814.345916257846,764.1156165677692
2023-10-16 15:09:50.936351,757.7825907100321,789.8936324785919,823.0765515308826,768.8048215598615
2023-10-16 15:09:50.961670,768.0299427549886,791.9526302145703,815.182692102975,776.9412927159825
2023-10-16 15:09:50.962118,756.0167513051398,789.5093926195624,821.2664802595173,767.3300232208817
2023-10-16 15:09:50.962393,769.7840808083129,792.3816143947291,822.0751102530054,778.5231523674287
2023-10-16 15:09:50.962626,759.7552263051839,790.268260181233,819.2157447728226,770.3174145764234
2023-10-16 15:09:50.962803,760.5720031592095,790.4726295144725,822.922957177131,771.0653926844074
2023-10-16 15:09:50.962980,744.8188704832246,787.1243629894683,815.3451960187788,758.1051947977057
2023-10-16 15:09:50.963174,741.6358124694522,786.4019785285103,808.8761735264306,755.3732281032012
2023-10-16 15:09:50.963357,745.6501715346484,787.2637814739202,811.730049626492,758.697030191162
2023-10-16 15:09:50.965196,737.5409902708402,785.5670044869509,810.7160371489302,752.0917628233415
2023-10-16 15:09:50.965626,774.7668016106247,793.3217491493774,811.6610458841309,782.3286604106105
2023-10-16 15:09:50.973208,773.8961774708406,793.1523622224485,812.9293004719591,781.6510836615975
2023-10-16 15:09:50.974182,765.3139013654751,791.4046908520817,817.0373170405489,774.7792865626753
2023-10-16 15:09:51.031771,770.0760632348746,792.379526653326,815.3053142427426,778.6048878187585
2023-10-16 15:09:51.032676,806.0870071701589,799.8120770922233,808.7738393624425,807.6842427312455
2023-10-16 15:09:51.033417,796.9300157522005,797.9467873035334,813.0939368688519,800.350828015958
2023-10-16 15:09:51.033970,811.7790687203516,800.9368128950172,802.3456805407616,812.1569173574718
2023-10-16 15:09:51.034871,776.3446854899244,793.6641267183991,813.1746189929277,783.644100213585
2023-10-16 15:09:51.035231,811.2574395326577,800.7919301118412,798.4307778462493,811.6437397605347
2023-10-16 15:09:51.035437,808.8669153177153,800.3465072024542,804.0323406016737,809.8318800527974
2023-10-16 15:09:51.036281,800.8441363673654,798.7786440542302,814.9687583969892,803.570815431533
2023-10-16 15:09:51.036858,811.3946553373343,800.8615462897601,802.8543977134875,811.8565659588746
2023-10-16 15:09:51.037312,793.5358231999013,797.2386135374126,812.8884130599598,797.5911365340442
2023-10-16 15:09:51.037592,788.0128998695476,796.1024011312394,814.2889648389357,793.1404434224961
2023-10-16 15:09:51.041253,773.5888003481768,793.0810014605481,812.1319758377231,781.3833077165787
2023-10-16 15:09:51.061190,804.8186278032151,799.3701767550963,789.6015729484889,806.2150336618319
2023-10-16 15:09:51.061965,793.9620692511672,797.0738070347351,785.5802611017954,797.3108218003201
2023-10-16 15:09:51.062235,805.0647063736849,799.4672821415955,794.5462526829956,806.5281709744432
2023-10-16 15:09:51.062391,790.5324908114646,796.3558230962151,785.1111299098749,794.5163629170381
2023-10-16 15:09:51.062597,803.5105719947906,799.1328740621757,793.3588344078181,805.2394880883942
2023-10-16 15:09:51.062729,808.5132552432754,800.1953167031604,795.6728522849362,809.3531061022336
2023-10-16 15:09:51.062850,816.6583906554936,801.8608786605754,792.5183176653903,815.8919546887154
2023-10-16 15:09:51.063044,800.2793581199348,798.4499784156375,792.2231537628134,802.5907498683072
2023-10-16 15:09:51.063297,813.8483985507233,801.2804688876269,792.9810263905268,813.62176884849
2023-10-16 15:09:51.063869,799.9013004803189,798.3304031198877,787.8162759265172,802.1828225680913
2023-10-16 15:09:51.064169,806.5807188065207,799.7636968319456,792.4953722631504,807.7116438359756
2023-10-16 15:09:51.065290,796.1667364165265,797.5548258084249,787.9792979613073,799.1553126296191
2023-10-16 15:09:51.128435,801.6119632022139,798.7297929849418,792.4951790125485,803.6786294701144
2023-10-16 15:09:51.129138,799.6687483712593,798.3063774823011,790.4408701571967,802.0542587360177
2023-10-16 15:09:51.129709,806.0307078355262,799.577685802011,784.7861407110663,807.0884100065273
2023-10-16 15:09:51.130050,812.4754163927623,800.9401049988581,787.0914271638762,812.3722822808677
2023-10-16 15:09:51.130922,808.4513774289027,800.0997236593108,786.7621599973941,809.0985228764869
2023-10-16 15:09:51.131297,805.524133780896,799.4959210482025,787.3331256264602,806.7356497759689
2023-10-16 15:09:51.131516,799.6957640036478,798.2983356346559,788.9690011644113,802.042430648983
2023-10-16 15:09:51.132367,813.2546789595139,801.1128528189131,788.2331267033501,813.0309733153185
2023-10-16 15:09:51.133430,805.4523423423828,799.4656549907662,785.681963625493,806.6395106327295
2023-10-16 15:09:51.133748,807.6475776115811,799.9069229149607,784.0102821646985,808.3829876204211
2023-10-16 15:09:51.134321,804.5898090209924,799.3252384516998,789.8896781557381,806.0359148269677
2023-10-16 15:09:51.134574,800.6003944495509,798.4739057755013,787.60456573689,802.7454036139204
2023-10-16 15:09:51.163359,802.7798790378931,798.9575228442147,790.8479793377271,804.5888194105559
2023-10-16 15:09:51.164202,812.7961106349463,801.099342508251,797.0567165503138,812.8611263058774
2023-10-16 15:09:51.165313,815.3693380195928,801.5508059749778,788.0105095693289,814.7422816561183
2023-10-16 15:09:51.166121,818.7939279883078,802.3080408245838,792.8197414195375,817.6322277818704
2023-10-16 15:09:51.166876,814.4242164260668,801.4000658257888,792.9573660280461,814.0886026406656
2023-10-16 15:09:51.167367,809.3106810548376,800.3158956459195,790.7875530755167,809.8883160451225
2023-10-16 15:09:51.169472,816.9677988585969,801.9753983912133,797.9193903905405,816.2669619775589
2023-10-16 15:09:51.169842,812.1702564889423,800.9478664896335,794.7678026981189,812.3006425888481
2023-10-16 15:09:51.170139,811.791271662873,800.8381793591674,791.4469051102122,811.9168686831523
2023-10-16 15:09:51.171084,809.6748435911602,800.434666111366,795.4191949571392,810.2901198093405
2023-10-16 15:09:51.171324,803.031064369807,799.0272331697547,792.7270716443604,804.8357952938782
2023-10-16 15:09:51.171703,810.4590555183544,800.6013534708787,795.7970930448355,810.9353110206845
2023-10-16 15:09:51.228553,826.1245221470118,803.8748987244746,797.2906146897785,823.6848161619621
2023-10-16 15:09:51.229040,829.1989530170147,804.5131220346848,797.1283428142614,826.1765303284834
2023-10-16 15:09:51.229353,818.9701906742686,802.3910679358511,797.8127960618204,817.8898067879057
2023-10-16 15:09:51.229553,819.866752843429,802.5545225394266,795.324074667814,818.5604464676222
2023-10-16 15:09:51.229751,828.7941918186237,804.3848720381394,792.3855579897228,825.7392247220691
2023-10-16 15:09:51.229907,818.686659237745,802.2929763213624,793.601395468599,817.5630870453099
2023-10-16 15:09:51.230325,812.015512306806,801.0051695323781,804.4093892888577,812.3961617586078
2023-10-16 15:09:51.232011,818.3143963593924,802.3240248503776,805.2904922980229,817.5290097182833
2023-10-16 15:09:51.232834,818.313711706921,802.3170508825916,804.5545723003427,817.511576348905
2023-10-16 15:09:51.233758,817.2354004921665,802.1275646445547,808.3130233852492,816.7225357808991
2023-10-16 15:09:51.234109,814.7434276124902,801.6163279132795,809.0988391149863,814.7178880546286
2023-10-16 15:09:51.234291,811.7596052226672,800.9876837108742,808.2619920089408,812.2768045555814
2023-10-16 15:09:51.261168,834.2636756114391,805.5399561689785,794.215819298042,830.2206381032643
2023-10-16 15:09:51.261816,829.8638274525521,804.6815842684956,800.3724327218947,826.7905918942389
2023-10-16 15:09:51.262345,796.5736503042581,797.6987841260992,794.3659994664044,799.632067249586
2023-10-16 15:09:51.262732,812.4709773325768,801.0874173414113,803.060069213271,812.7349054693011
2023-10-16 15:09:51.263132,800.4150624660408,798.5669243125676,801.7792207735911,802.9200572546622
2023-10-16 15:09:51.263328,811.0210756195512,800.8398549202707,808.8916362277838,811.6917995657199
2023-10-16 15:09:51.263477,809.2082487337233,800.4596838815758,808.5731182788574,810.2130701249521
2023-10-16 15:09:51.263613,812.7775148293804,801.2059180237072,808.9543356610637,813.1188936291064
2023-10-16 15:09:51.263885,820.0274864780041,802.7162427505792,809.1423885182932,819.007820226123
2023-10-16 15:09:51.264058,813.1746518577364,801.3334934179034,813.7953479503338,813.5522636520495
2023-10-16 15:09:51.264737,807.4023116897702,800.0037763352635,799.9414894639738,808.5492793653091
2023-10-16 15:09:51.265095,811.0311456502185,800.8027383870282,804.6675551566309,811.6030976968632
2023-10-16 15:09:51.296368,776.1843282742959,793.476757803541,796.5848754583611,783.1334717694737
2023-10-16 15:09:51.298180,770.7766330375878,792.3027938557282,791.3357829510193,778.6238027761489
2023-10-16 15:09:51.298498,799.4149363667277,798.2632237704596,791.4814519028696,801.8721109153564
2023-10-16 15:09:51.299035,777.5812571354612,793.8031297755168,800.4304290506121,784.3555169298767
2023-10-16 15:09:51.299194,781.7853633381155,794.6668371742007,799.236208281396,787.7404924294511
2023-10-16 15:09:51.300217,784.6023728701119,795.2317778941407,796.9498063077236,789.9745493898683
2023-10-16 15:09:51.302373,782.6560974356244,794.790784710693,793.0705562929065,788.305841080324
2023-10-16 15:09:51.304499,778.5733770760814,793.9599115194386,795.0809144502092,785.0381086859089
2023-10-16 15:09:51.306569,780.0958513201497,794.2722786099017,794.6036534034143,786.262915958659
2023-10-16 15:09:51.306837,798.6949452338495,798.1798517979321,798.6391236837267,801.4518674857792
2023-10-16 15:09:51.306994,772.5820332562703,792.7528456202068,799.3486341160989,780.2729667069494
2023-10-16 15:09:51.307777,781.3337995154178,794.5786203664704,799.855074420064,787.388162928399
2023-10-16 15:09:51.361970,793.6256974126505,797.1041668452699,796.3906550465227,797.2857240484047
2023-10-16 15:09:51.362637,817.663264866092,802.092432118704,794.9376519949985,816.7630702275568
2023-10-16 15:09:51.362994,798.7531180357428,798.2385539088071,803.6588103033515,801.6142067787001
2023-10-16 15:09:51.363194,820.803205628866,802.7894007222068,799.6352549056877,819.4194138743769
2023-10-16 15:09:51.363389,797.7942427314978,798.0049286851771,799.9852135235138,800.7516619913098
2023-10-16 15:09:51.363600,804.6301587060021,799.4280349966918,800.0589246010278,806.301888022081
2023-10-16 15:09:51.363802,798.2170898581749,798.031496326732,793.3689212732137,800.9431373913382
2023-10-16 15:09:51.363993,811.2127957052548,800.7147977816753,791.1224492474315,811.439893666098
2023-10-16 15:09:51.364183,806.2034444633899,799.7935479357171,804.1678109913735,807.6731167947114
2023-10-16 15:09:51.365045,827.229960829676,804.1559946836935,802.7926967162017,824.7082572822156
2023-10-16 15:09:51.366030,808.8722561274742,800.324118146738,801.5007759792578,809.7781559210102
2023-10-16 15:09:51.367088,796.1057061971662,797.7190439807895,807.0376229629031,799.5428613071521
2023-10-16 15:09:51.394297,818.679754666535,802.3651280962113,801.5286731863666,817.7392876769974
2023-10-16 15:09:51.394699,788.252429211067,796.0335129739871,801.4988872905175,793.0415343936494
2023-10-16 15:09:51.394904,829.1619728248925,804.5291872617986,799.6878851579534,826.2052152385231
2023-10-16 15:09:51.395084,792.3862123217418,796.8844553845747,800.5058837886967,796.3740451997934
2023-10-16 15:09:51.395550,793.0944275742773,796.978138361331,794.7229198719118,796.8162581255374
2023-10-16 15:09:51.395844,816.3921726386982,801.7914556259881,791.0071368657937,815.6412148805825
2023-10-16 15:09:51.396125,805.2995730092645,799.5503907644311,798.2344586734428,806.8033917698668
2023-10-16 15:09:51.396797,814.3781897381168,801.4705526692803,801.5822268285043,814.2490472983353
2023-10-16 15:09:51.397778,807.1128290105465,799.917402804762,797.1258121763786,808.2497387960531
2023-10-16 15:09:51.398467,785.0711760556394,795.3160013229043,795.5143289138349,790.3221433989661
2023-10-16 15:09:51.401101,811.8564138319921,800.8405401583425,790.2410347934298,811.9420873535227
2023-10-16 15:09:51.401582,783.5487018115712,795.0036342324412,795.9915899606299,789.097336126216
2023-10-16 15:09:51.429067,809.347537775138,800.3508717181985,793.7291735326986,809.985695073619
2023-10-16 15:09:51.429781,789.0768880990765,796.1364471834207,794.1068626398732,793.5411969184781
2023-10-16 15:09:51.430237,787.9137030325262,795.8774288530186,792.2774874847146,792.5551147438786
2023-10-16 15:09:51.430815,783.9379071540295,795.094174977573,797.0208573122221,789.4368493078885
2023-10-16 15:09:51.431464,781.0663768516592,794.5174371050848,799.2585211443811,787.1574214886558
2023-10-16 15:09:51.431961,785.9438874507636,795.5225334588607,798.2007343690913,791.092110844439
2023-10-16 15:09:51.432251,804.2807747938139,799.3292862464695,797.2528422928381,805.953947229191
2023-10-16 15:09:51.432455,793.9813280620959,797.1625983733753,794.713564434354,797.5359176688958
2023-10-16 15:09:51.432852,817.2809220206034,801.9986538397197,793.4057977035885,816.4176007829025
2023-10-16 15:09:51.433913,780.6718427132007,794.4261982735306,798.2734997819209,786.8145978030607
2023-10-16 15:09:51.434120,806.8360132150942,799.8308819100184,794.0103272239165,807.9536037918426
2023-10-16 15:09:51.434448,797.3279387941053,797.8635001548081,795.2022820921011,800.2634830154574
2023-10-16 15:09:51.495948,818.7690166168444,802.3072664758944,793.294722848876,817.6229011347442
2023-10-16 15:09:51.498512,802.0707116988029,798.8342854013009,793.4685464648852,804.0733070113706
2023-10-16 15:09:51.499093,785.5747386401385,795.3934679646536,792.5718355345136,790.6633886710763
2023-10-16 15:09:51.499405,792.0806935737346,796.8261452702209,801.0727766238543,796.1390647341301
2023-10-16 15:09:51.500080,820.8715505187326,802.804431930284,799.7225070449927,819.476888695561
2023-10-16 15:09:51.500498,815.0731824723376,801.504557455284,789.6668512280374,814.5398865737403
2023-10-16 15:09:51.500723,805.714838035939,799.5967242501492,793.9173864221059,807.0414434922975
2023-10-16 15:09:51.500958,830.0438850881278,804.6271843363251,790.4761715550693,826.7097782680921
2023-10-16 15:09:51.502312,815.4028004580562,801.5806668656047,790.4771840699196,814.8260131813144
2023-10-16 15:09:51.503560,792.6559164173666,796.9046668459616,796.6376339143665,796.5042422256405
2023-10-16 15:09:51.503800,806.4424095072868,799.8253493954647,802.2371144770824,807.8227997515119
2023-10-16 15:09:51.505960,779.8714621833933,794.2317764665116,795.2703492813674,786.0960751841707
2023-10-16 15:09:51.529440,785.5205460097476,795.4252796902504,797.2134837675482,790.7258538936354
2023-10-16 15:09:51.530633,797.0513410790089,797.8347718014766,798.3075776521541,800.1101929554808
2023-10-16 15:09:51.531000,781.8701163228762,794.7153280575409,802.5600914493252,787.8855144594494
2023-10-16 15:09:51.531187,796.4775605618472,797.6771473561146,794.1890781454365,799.5500161708605
2023-10-16 15:09:51.531352,775.2269052267853,793.201312399882,788.373670539717,782.1680398321641
2023-10-16 15:09:51.531520,791.8536783835777,796.6762943384472,790.0188000345362,795.7012895144885
2023-10-16 15:09:51.531645,811.0220868802865,800.6977431402563,793.5600572451978,811.341004582547
2023-10-16 15:09:51.531773,811.5075232281898,800.7869435487908,792.2878836317713,811.7058445211832
2023-10-16 15:09:51.532279,785.9900738853177,795.4868682589968,793.3234346709569,791.017742748883
2023-10-16 15:09:51.532520,809.4832788066215,800.3784711188241,793.6596174020241,810.0942773385087
2023-10-16 15:09:51.534394,775.9324840123288,793.3807839566525,791.8913303193747,782.8214141379234
2023-10-16 15:09:51.535144,794.4468607013334,797.2102563255421,789.4124022548797,797.7922011014645
2023-10-16 15:09:51.596109,792.5007677360537,796.9623678031978,806.3311526191186,796.6006240896455
2023-10-16 15:09:51.596624,817.8901644398095,802.1374926395117,794.7057323654285,816.9419198557407
2023-10-16 15:09:51.596936,803.2206547404801,799.1714685084812,804.0150029658182,805.248559297757
2023-10-16 15:09:51.597172,781.2572906039728,794.5009031715791,793.1980093706075,787.1733889086901
2023-10-16 15:09:51.597316,796.0401567554444,797.6260870590215,798.493206336595,799.2936981154245
2023-10-16 15:09:51.597446,776.2323731149033,793.5118217961436,799.2851811834205,783.2343975712278
2023-10-16 15:09:51.597690,819.4810020270099,802.432751040671,790.8530575378703,818.1448038392417
2023-10-16 15:09:51.597960,772.718130549158,792.7126706154135,791.9701327282006,780.2142141387747
2023-10-16 15:09:51.598111,798.293353981707,798.07029080633,795.838545825388,801.0616775899073
2023-10-16 15:09:51.598315,802.31477562022,798.8386069333447,788.4632970217232,804.1566165241073
2023-10-16 15:09:51.599434,801.4002828751793,798.8371898947497,808.8093440979565,803.880964558351
2023-10-16 15:09:51.600126,813.202330170918,801.1520732834009,793.6315467436333,813.112291008394
2023-10-16 15:09:51.618295,821.401681491297,802.9549303780171,804.0517833443179,820.0064702517109
2023-10-16 15:09:51.620468,825.1068511031274,803.7804373280737,809.926291041658,823.1485867209723
2023-10-16 15:09:51.621120,783.2009264673933,794.9055516011806,793.2212082878851,788.7515197277726
2023-10-16 15:09:51.621684,785.7928021856471,795.43282309536,791.9233688559842,790.8255131974454
2023-10-16 15:09:51.621939,807.9218252688227,800.0235926362931,790.4310982025237,808.7528428908796
2023-10-16 15:09:51.622890,783.00954650762,794.8085189574384,787.0582749182395,788.4548403201519
2023-10-16 15:09:51.623239,782.6862408637776,794.7912317498483,792.4430371222874,788.3159161379018
2023-10-16 15:09:51.623429,790.8500438916282,796.5326050664821,797.0367967506573,795.047616813439
2023-10-16 15:09:51.624281,813.6792271498231,801.2091114742886,789.0861295574676,813.3951309034053
2023-10-16 15:09:51.624486,788.7000791300586,796.0261259123163,790.6688799608047,793.1565038595612
2023-10-16 15:09:51.633479,803.8927271536352,799.1089974974046,782.2205942083439,805.2942281176804
2023-10-16 15:09:51.634562,823.275598517119,803.1723208645185,785.4654999687551,821.1012205766465
2023-10-16 15:09:51.678054,799.6009722864486,798.2405007161901,784.8635590333823,801.8713360976358
2023-10-16 15:09:51.678558,783.2388734332077,794.8249716991745,783.6901884547251,788.5637350374716
2023-10-16 15:09:51.679120,808.3789198709966,800.0420559702657,782.1741040311426,808.9344880737763
2023-10-16 15:09:51.679468,786.358701760435,795.4486441303167,780.9428303789857,791.0330105444426
2023-10-16 15:09:51.679696,794.921022686287,797.2395308289191,781.937463432682,798.0056351628891
2023-10-16 15:09:51.679931,779.8412837551523,794.0765425475704,779.2243238366585,785.7035791613832
2023-10-16 15:09:51.680102,783.9786282388825,794.9396654791622,779.4636305683881,789.067242554183
2023-10-16 15:09:51.680995,805.461247473274,799.4029547538007,778.7280041920195,806.4872559715806
2023-10-16 15:09:51.681850,779.8776219513985,794.1424461894253,785.5092221598511,785.8772123495758
2023-10-16 15:09:51.682343,821.032338315398,802.6627949671275,780.8606266556701,819.1748159320201
2023-10-16 15:09:51.682846,830.8272154853826,804.7050976494868,781.3106954886742,827.1353853720336
2023-10-16 15:09:51.683188,796.668191643106,797.5878981648713,780.3016925003783,799.3862519319972
2023-10-16 15:09:51.712111,808.7702055387246,800.2658370742798,797.5099824810073,809.6037988940182
2023-10-16 15:09:51.713310,797.3344893014241,797.8831351588623,797.1706197377362,800.3139419229886
2023-10-16 15:09:51.713840,809.4518042326797,800.4678444908726,803.9928277428544,810.3057130097847
2023-10-16 15:09:51.714204,805.5849298946271,799.6497799300573,802.5447191115508,807.1338604423795
2023-10-16 15:09:51.714702,782.7312461956511,794.8853097175863,801.568721694772,788.5617350598202
2023-10-16 15:09:51.715345,770.3886124883804,792.3041892264345,800.1837241416431,778.5117760404125
2023-10-16 15:09:51.716261,776.6886554913957,793.4824713657908,785.8956826117857,783.2976741787948
2023-10-16 15:09:51.716636,792.3338941263886,796.8884602294103,802.1100353431947,796.3683696333773
2023-10-16 15:09:51.717359,775.7580206316114,793.4609891034311,804.442046333373,782.9676459792846
2023-10-16 15:09:51.717787,788.5941663336114,795.9722997288839,787.2445596948218,792.9920035263832
2023-10-16 15:09:51.719525,795.3894151557106,797.5631959707089,806.3049156218183,798.9446624885147
2023-10-16 15:09:51.722044,782.2232653920729,794.7365116235396,796.9261107169131,788.0429461754006
2023-10-16 15:09:51.791143,824.277058729675,803.4985146146159,798.1564323122145,822.2051348051695
2023-10-16 15:09:51.792588,780.6156632354619,794.374921446888,794.0090166041124,786.6711963425741
2023-10-16 15:09:51.792869,798.9302000147391,798.2274679673087,798.4952247597506,801.6395174934194
2023-10-16 15:09:51.793218,829.8481856647172,804.6780744934176,800.3449607069028,826.7772658154809
2023-10-16 15:09:51.793394,791.534101984629,796.6799751312243,797.5787358107433,795.6152778878521
2023-10-16 15:09:51.793578,823.0757430453373,803.2607341734847,799.4696088299223,821.2601745578193
2023-10-16 15:09:51.793760,822.7303565548784,803.1468019352811,794.9382901566269,820.8759116439888
2023-10-16 15:09:51.794499,791.3587208328155,796.5963673787991,792.5033720103702,795.3565267146403
2023-10-16 15:09:51.795802,797.7102753106288,798.0533731405179,807.0860262288364,800.8463584863302
2023-10-16 15:09:51.796595,781.8153690994319,794.7122156312764,803.4519865692619,787.861532361512
2023-10-16 15:09:51.878441,816.5304180720636,801.8875641936343,798.26155493368,815.9197985797414
2023-10-16 15:09:51.879263,787.3410276659336,795.8398325638652,801.0641809148852,792.2918038249667
2023-10-16 15:09:51.879999,803.0672689338678,799.0981285071298,799.5526929620659,805.021721005588
2023-10-16 15:09:51.881662,792.2809037973583,796.8558759377609,799.7877089738959,796.2720983192506
2023-10-16 15:09:51.882007,782.6969223525269,794.8596146209078,799.5701137007089,788.488039033753
2023-10-16 15:09:51.882228,780.1011632592923,794.3291294103185,800.608804650392,786.4049501950603
2023-10-16 15:09:51.882875,811.0468028836633,800.7781561108725,801.6684806080902,811.5470252240998
2023-10-16 15:09:51.883164,830.987978262208,804.9496501745084,804.0514203079887,827.7874101520069
2023-10-16 15:09:51.883839,799.3928965784436,798.362229068813,802.6407718142704,802.1101506276558
2023-10-16 15:09:51.884407,801.4062355872408,798.7559148941782,799.9206083233827,803.681941162636
2023-10-16 15:09:51.884728,779.478697653466,794.1954519710737,800.1612773083206,785.8894473902758
2023-10-16 15:09:51.886223,778.0410874692448,793.8902196278751,799.5048653449535,784.7075223140716
2023-10-16 15:09:51.911209,809.3786670824053,800.4007602078201,798.4056078254514,810.118211684586
2023-10-16 15:09:51.911574,796.8118911425248,797.7787546770945,797.640524426513,799.9005394001586
2023-10-16 15:09:51.979128,822.6719055273694,803.2314583414332,805.3680553035086,821.0676656247375
2023-10-16 15:09:51.980094,790.9292346653847,796.6083757198581,803.4240567690582,795.2583798985631
2023-10-16 15:09:51.980833,820.42233057805,802.7407159576604,802.9281728085889,819.1857875555771
2023-10-16 15:09:51.981400,798.1294326688787,798.1621074606876,809.4038005388841,801.2397336749515
2023-10-16 15:09:51.983882,780.6480063432167,794.447325910882,801.0837637207205,786.8597012836952
2023-10-16 15:09:51.984709,787.5214073840758,795.8617363739893,799.3804776666136,792.3995991592933
2023-10-16 15:09:51.989119,796.14892170349,797.6959399357675,803.5800610388079,799.4986421787776
2023-10-16 15:09:51.989580,796.3691232291125,797.8255290350407,812.604074009702,799.8843315574613
2023-10-16 15:09:51.989943,825.1239042130895,803.7191608847763,802.9430689795496,823.0022744511814
2023-10-16 15:09:51.990180,823.0450718079309,803.2856075154887,802.836582794194,821.3124979912866
2023-10-16 15:09:51.990506,800.5540382083917,798.5713446363652,799.1402044366766,802.9723368212766
2023-10-16 15:09:51.994973,806.887928201866,799.9258161106242,803.0733665005375,808.2035943884733
2023-10-16 15:09:52.011534,798.1930127254232,798.0264679855833,793.366943996195,800.923549260685
2023-10-16 15:09:52.013357,802.8748094026897,799.0629424378747,800.076345876371,804.8775161029841
2023-10-16 15:09:52.013898,785.088379343723,795.4469000913397,809.2297066393302,790.6506565550507
2023-10-16 15:09:52.014140,810.8423120353132,800.7010856236216,797.9498447347888,811.2957617849646
2023-10-16 15:09:52.014266,778.5785144484313,793.9987879770292,799.1537027534059,785.1356842471977
2023-10-16 15:09:52.014492,796.8999708484758,797.857797277321,804.1810043321983,800.1220313593212
2023-10-16 15:09:52.014641,822.1961214624861,803.0737778847923,799.0468949001686,820.5365139953263
2023-10-16 15:09:52.014756,782.9070734371072,794.8521185213652,794.0519854888227,788.5320599698751
2023-10-16 15:09:52.015325,806.9861535105116,799.9610989681289,804.672435372733,808.3199945094162
2023-10-16 15:09:52.015569,785.3321917946374,795.467950954514,806.0322517438235,790.775222076801
2023-10-16 15:09:52.016470,786.1350134222741,795.5709520582731,799.1324405268014,791.2686106657993
2023-10-16 15:09:52.017013,817.7938486396499,802.1045289310981,793.3136901719589,816.8318176015447
2023-10-16 15:09:52.042848,782.5906862593513,794.805568798629,796.1293797811343,788.3228998568208
2023-10-16 15:09:52.044218,790.5649371225086,796.4854107047747,798.3435856205023,794.8461730626663
2023-10-16 15:09:52.044470,825.0563788569156,803.6850466441689,800.7817377905709,822.8978977106532
