timestamps,TP9,AF7,AF8,TP10,Right AUX,Secondary Timestamp (Base),Secondary Timestamp (Remainder)
4253.243,-45.898,-21.484,186.523,-7.324,-141.602,1694053248.000,11.365
4253.247,-37.598,-20.020,221.680,-11.719,-130.859,1694053248.000,11.369
4253.251,-41.016,-19.043,-78.613,-38.086,-90.332,1694053248.000,11.373
4253.254,-46.387,-42.480,-408.203,-48.828,-75.195,1694053248.000,11.377
4253.258,-37.109,-65.430,-263.672,-36.621,-32.715,1694053248.000,11.381
4253.262,-29.297,-71.289,62.012,-20.996,64.941,1694053248.000,11.385
4253.266,-44.434,-83.496,-27.344,-11.230,142.090,1694053248.000,11.389
4253.270,-47.363,-84.473,-591.309,-7.324,349.609,1694053248.000,11.392
4253.274,-44.922,-82.520,-569.336,-22.461,152.832,1694053248.000,11.396
4253.278,-41.992,-85.449,-135.742,-19.531,-149.414,1694053248.000,11.400
4253.282,-32.715,-82.520,18.066,-3.906,-89.355,1694053248.000,11.404
4253.286,-29.297,-79.590,151.367,-25.879,-79.102,1694053248.000,11.408
4253.305,-31.250,-71.777,158.691,-37.598,-115.723,1694053248.000,11.427
4253.309,-32.227,-62.988,-290.039,-37.598,-132.812,1694053248.000,11.431
4253.312,-37.598,-57.129,-345.703,-29.297,-99.609,1694053248.000,11.435
4253.316,-41.016,-56.641,88.379,-23.438,-70.312,1694053248.000,11.439
4253.320,-39.551,-55.664,255.371,-25.391,-63.965,1694053248.000,11.443
4253.324,-45.410,-56.152,-38.086,-27.832,-14.648,1694053248.000,11.447
4253.328,-42.480,-60.059,-513.184,-29.297,161.133,1694053248.000,11.451
4253.332,-46.875,-63.965,-375.000,-25.879,123.047,1694053248.000,11.454
4253.336,-63.965,-74.707,-68.848,-22.949,-47.363,1694053248.000,11.458
4253.340,-68.359,-82.031,3.906,-38.574,-25.391,1694053248.000,11.462
4253.344,-70.801,-85.938,-133.301,-39.551,49.805,1694053248.000,11.466
4253.348,-72.266,-91.309,-325.195,-58.105,-54.199,1694053248.000,11.470
4253.333,-73.730,-105.957,-287.598,-56.152,-143.555,1694053248.000,11.455
4253.337,-65.918,-120.117,-53.711,-32.715,-65.430,1694053248.000,11.459
4253.341,-59.570,-128.906,97.168,-42.969,-60.059,1694053248.000,11.463
4253.345,-62.012,-145.020,153.320,-38.574,-146.973,1694053248.000,11.467
4253.349,-62.500,-163.574,-260.254,-47.363,-120.605,1694053248.000,11.471
4253.353,-55.176,-172.852,-498.535,-50.293,12.207,1694053248.000,11.475
4253.356,-47.852,-178.223,-241.699,-39.551,40.527,1694053248.000,11.479
4253.360,-56.152,-187.500,28.320,-33.691,-25.391,1694053248.000,11.482
4253.364,-60.547,-189.453,189.941,-50.293,-136.230,1694053248.000,11.486
4253.368,-65.430,-191.406,-374.512,-56.641,-37.598,1694053248.000,11.490
4253.372,-65.918,-203.125,-748.535,-43.457,239.746,1694053248.000,11.494
4253.376,-62.988,-208.496,-129.883,-38.086,37.598,1694053248.000,11.498
4253.381,-59.082,-203.613,179.199,-37.109,-168.945,1694053248.000,11.504
4253.385,-44.434,-192.383,7.812,-27.832,-15.625,1694053248.000,11.508
4253.389,-42.480,-187.012,-214.355,-43.945,-13.672,1694053248.000,11.512
4253.393,-52.734,-184.082,-336.914,-47.852,-123.535,1694053248.000,11.516
4253.397,-51.758,-178.223,-102.051,-18.555,-143.066,1694053248.000,11.520
4253.401,-44.434,-174.805,-47.363,-13.672,-34.668,1694053248.000,11.524
4253.405,-50.293,-166.504,16.602,-20.020,54.688,1694053248.000,11.528
4253.409,-58.105,-156.250,-39.551,-37.598,-74.219,1694053248.000,11.531
4253.413,-53.711,-150.879,-449.707,-52.734,-142.090,1694053248.000,11.535
4253.417,-60.059,-140.137,-399.902,-43.457,38.574,1694053248.000,11.539
4253.420,-57.129,-128.906,51.758,-29.297,-17.578,1694053248.000,11.543
4253.424,-54.688,-131.348,260.254,-24.902,-139.648,1694053248.000,11.547
4253.439,-50.781,-137.695,-119.141,-23.438,-38.574,1694053248.000,11.562
4253.443,-53.711,-147.949,-546.875,-25.391,16.113,1694053248.000,11.566
4253.447,-65.430,-155.273,-243.164,-32.715,-18.066,1694053248.000,11.570
4253.451,-56.641,-158.691,189.941,-34.180,-101.562,1694053248.000,11.574
4253.455,-49.316,-162.598,-9.277,-27.344,54.199,1694053248.000,11.578
4253.459,-57.129,-159.180,-468.262,-25.879,336.914,1694053248.000,11.582
4253.463,-64.453,-156.250,-464.844,-37.109,156.738,1694053248.000,11.586
4253.466,-69.824,-148.438,-232.422,-40.527,-128.418,1694053248.000,11.589
4253.470,-60.547,-143.555,-251.465,-20.508,0.000,1694053248.000,11.593
4253.474,-57.617,-150.391,-146.484,-16.113,97.168,1694053248.000,11.597
4253.478,-63.965,-149.414,172.363,-37.598,-99.609,1694053248.000,11.601
4253.482,-58.105,-145.996,-258.789,-51.758,-128.906,1694053248.000,11.605
4253.485,-60.547,-142.578,-353.027,-43.945,-67.383,1694053248.000,11.607
4253.489,-55.664,-141.602,87.891,-31.738,-69.824,1694053248.000,11.611
4253.493,-48.340,-134.277,257.812,-32.715,-95.703,1694053248.000,11.615
4253.497,-45.898,-121.582,94.238,-34.180,-72.754,1694053248.000,11.619
4253.500,-48.828,-119.141,-304.688,-47.852,2.441,1694053248.000,11.623
4253.504,-53.711,-114.746,-371.094,-48.828,-1.465,1694053248.000,11.627
4253.508,-46.875,-112.793,-61.035,-37.598,-0.977,1694053248.000,11.631
4253.512,-43.945,-116.699,162.598,-35.645,-43.945,1694053248.000,11.634
4253.516,-52.734,-122.070,-269.043,-23.926,148.926,1694053248.000,11.638
4253.520,-56.152,-117.676,-534.180,-39.551,175.781,1694053248.000,11.642
4253.524,-51.270,-112.305,-213.867,-54.199,-132.812,1694053248.000,11.646
4253.528,-43.457,-107.910,-47.852,-34.668,-79.590,1694053248.000,11.650
4253.528,-37.598,-106.934,123.047,-17.578,-45.410,1694053248.000,11.650
4253.532,-37.598,-109.863,232.422,-35.156,-139.648,1694053248.000,11.654
4253.536,-55.176,-109.375,-54.199,-67.383,-112.305,1694053248.000,11.658
4253.540,-55.664,-109.863,-335.449,-55.176,-76.172,1694053248.000,11.662
4253.543,-39.551,-106.445,-73.730,-29.297,-56.641,1694053248.000,11.666
4253.547,-41.504,-103.516,112.305,-29.297,-28.320,1694053248.000,11.670
4253.551,-43.945,-97.656,130.371,-34.180,-8.301,1694053248.000,11.674
4253.555,-46.387,-92.773,-267.090,-44.922,190.918,1694053248.000,11.677
4253.559,-54.199,-82.031,-750.000,-47.852,406.250,1694053248.000,11.681
4253.563,-54.688,-71.289,-208.496,-41.016,182.129,1694053248.000,11.685
4253.567,-48.828,-72.266,241.699,-39.062,-115.723,1694053248.000,11.689
4253.571,-38.086,-80.078,198.242,-28.320,-113.281,1694053248.000,11.693
4253.590,-40.039,-83.984,72.266,-44.922,-122.070,1694053248.000,11.712
4253.594,-52.246,-84.473,-232.910,-61.035,-194.336,1694053248.000,11.716
4253.598,-38.574,-87.402,-64.941,-36.621,-143.555,1694053248.000,11.720
4253.602,-25.391,-85.449,150.879,-26.367,-82.031,1694053248.000,11.724
4253.605,-31.738,-85.449,215.332,-26.367,-113.770,1694053248.000,11.728
4253.609,-36.621,-85.938,-55.664,-29.297,-99.121,1694053248.000,11.732
4253.613,-32.227,-74.219,-418.945,-34.180,-85.938,1694053248.000,11.736
4253.617,-29.785,-69.336,-397.461,-23.438,89.844,1694053248.000,11.739
4253.621,-27.344,-70.801,-63.965,-26.367,57.617,1694053248.000,11.743
4253.625,-38.574,-70.312,239.746,-27.344,-183.594,1694053248.000,11.747
4253.629,-46.387,-72.266,-138.184,-29.297,-107.422,1694053248.000,11.751
4253.633,-41.992,-70.801,-498.047,-56.641,-28.320,1694053248.000,11.755
4253.618,-54.688,-71.289,-46.387,-63.477,-98.633,1694053248.000,11.740
4253.622,-46.387,-76.172,231.934,-59.082,-132.812,1694053248.000,11.744
4253.626,-44.434,-79.102,101.074,-46.387,-66.895,1694053248.000,11.748
4253.629,-61.035,-83.496,18.555,-42.969,-65.430,1694053248.000,11.752
4253.633,-63.965,-81.055,-274.902,-53.223,-74.707,1694053248.000,11.756
4253.637,-61.523,-77.148,-307.617,-49.805,-39.062,1694053248.000,11.760
4253.641,-60.547,-76.660,-183.105,-46.387,42.969,1694053248.000,11.764
4253.645,-57.129,-68.848,-13.184,-51.758,21.973,1694053248.000,11.767
4253.649,-62.500,-63.477,148.438,-60.059,-106.934,1694053248.000,11.771
4253.653,-71.777,-71.289,-203.613,-74.707,-114.746,1694053248.000,11.775
4253.657,-66.406,-72.266,-496.094,-62.988,57.617,1694053248.000,11.779
4253.661,-66.406,-65.918,-406.738,-38.086,245.117,1694053248.000,11.783
4253.666,-61.523,-62.500,49.805,-47.852,56.152,1694053248.000,11.788
4253.670,-59.082,-62.012,99.609,-59.082,-81.055,1694053248.000,11.792
4253.674,-65.918,-63.477,-341.309,-63.965,-67.871,1694053248.000,11.796
4253.678,-61.523,-62.500,-294.922,-73.730,-80.566,1694053248.000,11.800
4253.682,-58.105,-63.477,88.379,-72.266,-133.789,1694053248.000,11.804
4253.686,-56.641,-62.012,120.605,-57.129,-92.285,1694053248.000,11.808
4253.689,-61.523,-55.664,-108.887,-44.434,145.508,1694053248.000,11.812
4253.693,-72.754,-51.270,-330.566,-55.176,70.801,1694053248.000,11.815
4253.697,-67.383,-47.363,-284.668,-63.477,-166.504,1694053248.000,11.819
4253.701,-51.758,-43.457,-116.699,-49.316,-118.164,1694053248.000,11.823
4253.705,-36.133,-41.016,-11.719,-38.086,-54.688,1694053248.000,11.827
4253.709,-39.551,-45.898,174.316,-44.434,-106.445,1694053248.000,11.831
4253.708,-48.828,-57.617,-90.332,-57.617,-170.410,1694053248.000,11.831
4253.712,-50.293,-56.152,-458.008,-62.500,-95.703,1694053248.000,11.835
4253.716,-57.617,-52.246,-155.762,-55.176,-51.758,1694053248.000,11.839
4253.720,-64.941,-59.082,115.234,-40.039,-65.430,1694053248.000,11.843
4253.724,-62.500,-67.871,68.359,-44.922,-33.691,1694053248.000,11.847
4253.728,-55.176,-81.055,-354.004,-66.895,105.469,1694053248.000,11.851
4253.732,-52.734,-78.613,-806.641,-65.430,407.227,1694053248.000,11.855
4253.736,-65.918,-61.523,-384.766,-51.758,223.633,1694053248.000,11.858
4253.740,-65.430,-68.359,113.770,-55.664,-169.434,1694053248.000,11.862
4253.743,-48.828,-70.312,45.410,-58.594,-177.246,1694053248.000,11.866
4253.747,-49.316,-62.988,-195.801,-62.500,-138.672,1694053248.000,11.870
4253.751,-59.082,-61.035,-354.004,-70.312,-173.828,1694053248.000,11.874
4253.768,-54.688,-54.199,-180.176,-58.594,-167.969,1694053248.000,11.891
4253.772,-49.805,-53.711,-54.199,-59.082,-67.871,1694053248.000,11.895
4253.776,-47.363,-62.012,109.375,-59.570,-38.086,1694053248.000,11.899
4253.780,-50.293,-82.031,22.949,-53.711,-105.957,1694053248.000,11.903
4253.784,-47.363,-88.867,-413.574,-65.430,-103.516,1694053248.000,11.907
4253.788,-45.410,-82.520,-342.773,-60.059,30.762,1694053248.000,11.911
4253.792,-52.246,-77.148,-6.348,-46.875,71.289,1694053248.000,11.915
4253.796,-51.270,-78.125,128.418,-42.969,-17.578,1694053248.000,11.918
4253.800,-53.711,-83.008,-108.398,-47.852,-41.016,1694053248.000,11.922
4253.804,-49.805,-83.008,-666.504,-47.852,141.113,1694053248.000,11.926
4253.808,-43.945,-75.684,-397.949,-41.504,100.098,1694053248.000,11.930
4253.811,-38.086,-76.660,191.895,-37.109,-122.070,1694053248.000,11.934
4253.813,-36.621,-81.543,126.465,-37.598,-63.965,1694053248.000,11.935
4253.817,-34.180,-81.543,-4.883,-38.574,-53.223,1694053248.000,11.939
4253.821,-35.645,-92.773,-256.348,-37.109,-108.398,1694053248.000,11.943
4253.825,-50.293,-103.027,-249.023,-39.062,-174.805,1694053248.000,11.947
4253.828,-44.922,-103.027,-145.996,-28.320,17.090,1694053248.000,11.951
4253.832,-39.062,-94.727,-190.918,-26.367,156.250,1694053248.000,11.955
4253.836,-49.805,-92.773,-36.133,-38.086,-7.812,1694053248.000,11.959
4253.840,-48.828,-76.660,-307.617,-44.922,-132.324,1694053248.000,11.962
4253.844,-41.016,-57.129,-511.230,-40.527,-32.227,1694053248.000,11.966
4253.848,-38.086,-49.805,-476.074,-33.203,301.758,1694053248.000,11.970
4253.852,-31.250,-49.805,-17.578,-31.250,71.777,1694053248.000,11.974
4253.856,-27.832,-54.199,194.336,-30.762,-157.227,1694053248.000,11.978
4253.860,-52.734,-51.270,-274.414,-62.012,-123.047,1694053248.000,11.982
4253.864,-60.547,-55.176,-345.215,-78.613,-163.086,1694053248.000,11.986
4253.867,-61.035,-48.828,68.359,-67.383,-159.668,1694053248.000,11.990
4253.871,-48.340,-58.105,179.688,-60.547,-119.629,1694053248.000,11.994
4253.875,-40.039,-91.797,88.379,-60.059,-83.496,1694053248.000,11.998
4253.879,-54.199,-102.539,-215.332,-62.988,-41.992,1694053248.000,12.002
4253.883,-44.922,-105.469,-407.227,-54.688,-28.320,1694053248.000,12.006
4253.887,-36.133,-107.910,-144.531,-48.828,-66.406,1694053248.000,12.009
4253.891,-37.598,-107.422,-204.102,-41.504,140.625,1694053248.000,12.013
4253.895,-42.480,-103.027,7.812,-47.363,126.953,1694053248.000,12.017
4253.899,-40.527,-98.633,16.602,-69.824,-137.207,1694053248.000,12.021
4253.903,-40.039,-90.332,-465.332,-53.223,-42.969,1694053248.000,12.025
4253.903,-35.645,-81.543,-157.227,-32.715,57.617,1694053248.000,12.025
4253.907,-35.645,-73.242,227.051,-41.992,-75.684,1694053248.000,12.029
4253.911,-42.969,-70.801,247.070,-44.434,-110.352,1694053248.000,12.033
4253.915,-41.504,-75.684,-149.414,-53.711,-60.059,1694053248.000,12.037
4253.919,-39.062,-84.961,-496.582,-65.430,0.000,1694053248.000,12.041
4253.923,-38.574,-82.520,-187.012,-62.500,30.762,1694053248.000,12.045
4253.926,-32.227,-76.660,113.770,-48.340,-2.441,1694053248.000,12.049
4253.930,-25.879,-77.637,-29.297,-43.457,70.801,1694053248.000,12.052
4253.934,-31.250,-74.707,-559.082,-53.711,248.535,1694053248.000,12.056
4253.938,-31.250,-65.918,-471.680,-57.617,54.688,1694053248.000,12.060
4253.942,-27.832,-60.547,-16.113,-54.199,-162.109,1694053248.000,12.064
4253.946,-27.832,-57.617,175.293,-53.711,-118.164,1694053248.000,12.068
4253.950,-19.531,-54.199,221.680,-49.316,-95.215,1694053248.000,12.072
4253.953,-28.809,-56.152,106.445,-49.805,-134.766,1694053248.000,12.076
4253.957,-30.273,-56.152,-291.992,-54.199,-143.555,1694053248.000,12.080
4253.961,-33.691,-54.688,-311.035,-47.363,-45.898,1694053248.000,12.084
4253.965,-52.246,-54.199,80.078,-46.387,-83.496,1694053248.000,12.088
4253.969,-61.035,-55.176,220.215,-50.293,-98.145,1694053248.000,12.092
4253.973,-59.082,-50.781,-57.129,-57.129,-21.484,1694053248.000,12.096
4253.977,-44.434,-41.504,-569.824,-48.828,126.465,1694053248.000,12.099
4253.981,-49.316,-44.434,-240.723,-50.293,69.824,1694053248.000,12.103
4253.985,-48.828,-46.875,257.812,-47.852,-143.066,1694053248.000,12.107
4253.989,-25.391,-41.016,151.855,-24.902,-104.004,1694053248.000,12.111
4253.993,-28.809,-41.504,64.941,-37.598,-80.566,1694053248.000,12.115
4253.993,-43.457,-43.945,-190.430,-70.312,-127.930,1694053248.000,12.115
4253.997,-37.109,-42.969,-188.965,-56.641,-144.043,1694053248.000,12.119
4254.001,-33.691,-44.922,64.941,-54.199,-53.223,1694053248.000,12.123
4254.004,-35.156,-47.852,144.043,-50.293,-32.715,1694053248.000,12.127
4254.008,-36.133,-53.711,79.590,-44.922,-59.082,1694053248.000,12.131
4254.012,-52.734,-60.547,-291.016,-69.336,-46.875,1694053248.000,12.135
4254.016,-45.410,-61.035,-455.078,-61.523,100.098,1694053248.000,12.139
4254.020,-22.461,-54.688,-512.207,-27.344,403.320,1694053248.000,12.142
4254.024,-23.438,-26.855,-122.070,-42.480,222.656,1694053248.000,12.146
4254.028,-35.645,-9.277,201.172,-56.641,-112.793,1694053248.000,12.150
4254.032,-39.551,-23.438,-259.277,-53.711,-113.281,1694053248.000,12.154
4254.036,-26.367,-34.180,-281.738,-53.223,-58.594,1694053248.000,12.158
4254.040,-36.133,-39.062,141.113,-45.410,-78.613,1694053248.000,12.162
4254.044,-37.109,-43.457,168.945,-60.059,-104.492,1694053248.000,12.166
4254.047,-33.203,-45.410,113.770,-60.547,-99.609,1694053248.000,12.170
4254.051,-53.711,-43.457,-83.008,-48.828,-129.395,1694053248.000,12.174
4254.055,-41.992,-36.133,-336.426,-53.711,-135.742,1694053248.000,12.178
4254.059,-36.621,-36.621,-151.855,-41.504,-30.273,1694053248.000,12.182
4254.063,-30.762,-35.645,-260.742,-18.066,169.922,1694053248.000,12.186
4254.067,-24.414,-29.297,-110.840,-47.363,101.074,1694053248.000,12.189
4254.071,-31.250,-35.645,-59.082,-65.918,-108.398,1694053248.000,12.193
4254.075,-41.504,-40.527,-497.070,-61.523,-114.746,1694053248.000,12.197
4254.079,-60.059,-37.109,-185.059,-52.734,-75.684,1694053248.000,12.201
4254.083,-53.711,-41.992,189.941,-66.895,-134.277,1694053248.000,12.205
4254.083,-36.133,-41.992,248.535,-71.289,-138.672,1694053248.000,12.205
4254.087,-27.832,-43.945,-94.238,-47.852,-16.113,1694053248.000,12.209
4254.091,-36.133,-49.316,-442.871,-69.824,-7.324,1694053248.000,12.213
4254.095,-53.711,-38.574,-34.180,-82.031,-79.590,1694053248.000,12.217
4254.099,-41.992,-31.250,155.762,-45.898,-60.547,1694053248.000,12.221
4254.103,-26.855,-27.832,-102.539,-39.551,159.668,1694053248.000,12.225
4254.106,-27.832,-31.738,-430.664,-37.598,335.938,1694053248.000,12.229
4254.110,-33.203,-25.879,-381.348,-41.992,100.098,1694053248.000,12.232
4254.114,-38.086,-24.902,1.465,-53.711,-115.723,1694053248.000,12.236
4254.118,-26.367,-33.203,20.996,-29.297,-20.996,1694053248.000,12.240
4254.122,-19.043,-29.297,29.785,-56.641,3.906,1694053248.000,12.244
4254.126,-21.484,-28.809,44.434,-60.547,-38.574,1694053248.000,12.248
4254.143,-14.160,-31.250,-337.891,-31.738,-85.449,1694053248.000,12.266
4254.147,-30.273,-24.414,-333.984,-43.457,-75.684,1694053248.000,12.270
4254.151,-33.691,-32.715,67.871,-55.176,-62.988,1694053248.000,12.274
4254.155,-13.184,-43.457,251.953,-34.668,-117.188,1694053248.000,12.278
4254.159,-16.113,-43.945,43.457,-7.812,-116.699,1694053248.000,12.282
4254.163,-29.297,-46.387,-358.398,-53.223,-66.895,1694053248.000,12.286
4254.167,-34.668,-40.039,-334.473,-50.293,21.973,1694053248.000,12.290
4254.171,-34.180,-36.133,55.664,-20.996,-23.438,1694053248.000,12.293
4254.175,-32.227,-29.297,145.996,-52.734,-106.934,1694053248.000,12.297
4254.179,-34.668,-16.602,-195.801,-58.594,25.879,1694053248.000,12.301
4254.182,-47.852,-7.324,-354.004,-57.129,-53.711,1694053248.000,12.305
4254.186,-32.227,-5.371,-183.105,-46.875,-197.266,1694053248.000,12.309
4254.189,-30.273,-20.996,16.602,-35.156,-104.004,1694053248.000,12.311
4254.193,-37.598,-33.691,77.637,-36.621,-40.039,1694053248.000,12.315
4254.197,-43.945,-34.180,144.531,-43.945,-69.336,1694053248.000,12.319
4254.201,-46.875,-29.297,-78.613,-38.086,-153.320,1694053248.000,12.323
4254.205,-36.133,-29.297,-436.035,-27.832,-29.785,1694053248.000,12.327
4254.209,-34.668,-29.297,-381.836,-39.551,165.527,1694053248.000,12.331
4254.212,-41.992,-28.320,25.391,-34.668,12.207,1694053248.000,12.335
4254.216,-40.039,-28.320,178.711,-22.461,-113.281,1694053248.000,12.338
4254.220,-43.457,-33.691,-362.793,-48.828,-9.277,1694053248.000,12.342
4254.224,-45.898,-36.133,-572.754,-24.902,132.324,1694053248.000,12.346
4254.228,-38.086,-34.668,71.289,-30.273,-66.406,1694053248.000,12.350
4254.232,-39.062,-34.668,202.637,-70.801,-185.547,1694053248.000,12.354
4254.250,-42.969,-41.016,182.617,-46.875,-118.164,1694053248.000,12.372
4254.254,-26.367,-46.875,-19.531,-16.602,-131.348,1694053248.000,12.376
4254.257,-25.391,-39.062,-280.762,-31.738,-174.316,1694053248.000,12.380
4254.261,-32.227,-38.086,-29.297,-42.969,-172.852,1694053248.000,12.384
4254.265,-37.598,-41.016,100.098,-33.203,-62.500,1694053248.000,12.388
4254.269,-33.203,-35.645,134.277,-22.949,20.508,1694053248.000,12.392
4254.273,-32.227,-39.062,-119.141,-22.461,-10.742,1694053248.000,12.396
4254.277,-41.504,-38.086,-385.742,-41.504,-89.355,1694053248.000,12.399
4254.281,-34.668,-34.668,-448.242,-40.527,101.562,1694053248.000,12.403
4254.285,-30.273,-30.273,-184.570,-30.762,195.801,1694053248.000,12.407
4254.289,-26.855,-31.738,323.730,-30.762,-74.707,1694053248.000,12.411
4254.293,-20.020,-34.180,-58.594,-14.648,-69.336,1694053248.000,12.415
4254.278,-35.156,-28.320,-431.152,-44.434,-35.645,1694053248.000,12.400
4254.282,-42.480,-30.273,4.883,-52.734,-89.844,1694053248.000,12.404
4254.286,-24.902,-29.297,235.840,-22.949,-111.328,1694053248.000,12.408
4254.289,-31.250,-26.855,139.648,-21.973,-55.664,1694053248.000,12.412
4254.293,-39.551,-25.879,-104.492,-25.391,-12.207,1694053248.000,12.416
4254.297,-40.527,-24.902,-359.863,-52.734,-54.688,1694053248.000,12.420
4254.301,-40.527,-21.484,-228.027,-47.852,-23.438,1694053248.000,12.424
4254.305,-28.809,-20.020,-115.234,-28.320,79.102,1694053248.000,12.427
4254.309,-32.715,-22.949,69.824,-39.062,35.645,1694053248.000,12.431
4254.313,-34.668,-20.020,163.086,-22.461,-62.500,1694053248.000,12.435
4254.317,-37.598,-19.043,-183.594,-40.527,-112.305,1694053248.000,12.439
4254.321,-41.992,-20.996,-386.719,-54.199,-3.906,1694053248.000,12.443
4254.325,-30.273,-21.484,-465.332,-25.391,312.012,1694053248.000,12.447
4254.328,-33.691,-23.926,-104.492,-27.832,160.645,1694053248.000,12.451
4254.332,-33.203,-28.320,170.410,-23.438,-77.148,1694053248.000,12.455
4254.336,-33.691,-27.832,-238.281,-51.758,-71.777,1694053248.000,12.459
4254.340,-38.574,-30.762,-210.449,-66.406,-123.047,1694053248.000,12.463
4254.344,-30.762,-28.809,80.078,-38.086,-124.023,1694053248.000,12.467
4254.348,-27.344,-25.879,188.477,-46.875,-50.781,1694053248.000,12.471
4254.352,-28.809,-25.879,-154.785,-30.273,171.387,1694053248.000,12.474
4254.356,-37.109,-27.344,-423.340,-37.109,73.730,1694053248.000,12.478
4254.360,-38.574,-29.297,-187.500,-46.875,-145.508,1694053248.000,12.482
4254.364,-39.062,-33.691,-53.711,-25.879,23.926,1694053248.000,12.486
4254.367,-34.668,-37.598,31.250,-32.227,97.168,1694053248.000,12.490
4254.368,-28.809,-40.039,195.312,-35.645,-73.730,1694053248.000,12.490
4254.372,-33.203,-41.992,-57.617,-37.598,-145.020,1694053248.000,12.494
4254.376,-41.016,-42.969,-354.492,-60.059,-74.219,1694053248.000,12.498
4254.379,-37.109,-43.945,-53.711,-55.176,-68.848,1694053248.000,12.502
4254.383,-27.832,-47.363,164.551,-40.039,-99.609,1694053248.000,12.506
4254.387,-34.180,-47.852,116.699,-38.086,-85.938,1694053248.000,12.510
4254.391,-35.156,-49.316,-320.312,-47.363,80.566,1694053248.000,12.514
4254.395,-31.250,-50.781,-711.914,-52.734,377.930,1694053248.000,12.517
4254.399,-31.250,-52.734,-129.395,-33.203,131.836,1694053248.000,12.521
4254.403,-36.133,-63.477,222.656,-53.711,-152.344,1694053248.000,12.525
4254.407,-38.086,-67.383,142.578,-70.312,-115.234,1694053248.000,12.529
4254.411,-32.715,-61.035,-63.477,-56.152,-126.465,1694053248.000,12.533
4254.416,-34.668,-60.059,-329.590,-47.852,-142.090,1694053248.000,12.539
4254.420,-31.738,-64.453,-139.648,-25.391,-83.984,1694053248.000,12.543
4254.424,-29.297,-66.895,-51.270,-43.945,-1.465,1694053248.000,12.547
4254.428,-41.992,-68.848,97.168,-61.035,-58.105,1694053248.000,12.551
4254.432,-45.410,-66.406,9.766,-57.617,-158.203,1694053248.000,12.555
4254.436,-40.527,-61.035,-378.906,-71.777,-87.891,1694053248.000,12.559
4254.440,-31.738,-59.570,-318.848,-58.105,154.785,1694053248.000,12.563
4254.443,-15.137,-53.711,39.062,-27.344,92.773,1694053248.000,12.566
4254.447,-13.672,-47.363,281.738,-16.602,-144.531,1694053248.000,12.570
4254.451,-41.504,-52.246,-99.121,-38.574,-121.094,1694053248.000,12.574
4254.455,-69.336,-54.688,-481.445,-66.895,-24.902,1694053248.000,12.578
4254.459,-66.406,-49.316,-62.500,-75.195,-76.172,1694053248.000,12.582
4254.458,-72.266,-50.781,214.355,-85.938,-135.254,1694053248.000,12.581
4254.462,-96.680,-57.617,90.820,-121.094,-76.660,1694053248.000,12.585
4254.466,-106.445,-56.641,-12.695,-129.883,-41.504,1694053248.000,12.589
4254.470,-113.770,-54.199,-273.926,-117.676,-103.027,1694053248.000,12.593
4254.474,-126.465,-55.664,-294.922,-142.578,-91.309,1694053248.000,12.597
4254.478,-132.812,-52.246,-214.355,-134.766,46.875,1694053248.000,12.601
4254.482,-123.535,-56.152,-473.633,-115.723,372.559,1694053248.000,12.605
4254.485,-125.000,-57.617,-351.562,-138.184,284.668,1694053248.000,12.608
4254.489,-126.953,-54.199,-271.973,-130.859,-101.562,1694053248.000,12.612
4254.493,-116.211,-51.758,-296.387,-123.535,-115.234,1694053248.000,12.616
4254.497,-104.980,-53.223,54.199,-124.023,-137.207,1694053248.000,12.620
4254.501,-91.797,-48.828,251.953,-102.539,-154.785,1694053248.000,12.624
4254.548,-80.078,-40.039,94.238,-98.633,-116.211,1694053248.000,12.670
4254.552,-78.613,-36.621,-286.133,-95.215,-87.891,1694053248.000,12.674
4254.556,-67.383,-34.180,-231.445,-83.984,-93.262,1694053248.000,12.678
4254.560,-60.059,-41.504,121.582,-92.285,-124.512,1694053248.000,12.682
4254.563,-59.082,-45.410,169.922,-87.402,-85.449,1694053248.000,12.686
4254.567,-52.246,-41.504,-85.938,-53.711,-7.324,1694053248.000,12.690
4254.571,-49.805,-37.598,-361.328,-63.477,-9.766,1694053248.000,12.694
4254.575,-42.969,-34.180,-339.355,-76.660,-35.645,1694053248.000,12.697
4254.579,-45.898,-41.016,-123.535,-59.570,-107.910,1694053248.000,12.701
4254.583,-45.410,-45.898,-332.031,-33.691,99.121,1694053248.000,12.705
4254.587,-45.410,-39.551,-197.266,-43.945,128.418,1694053248.000,12.709
4254.591,-53.223,-39.551,-8.301,-73.730,-127.930,1694053248.000,12.713
4254.552,-62.012,-46.875,-389.160,-75.195,-120.605,1694053248.000,12.675
4254.556,-61.035,-44.922,-136.719,-69.824,-96.680,1694053248.000,12.679
4254.560,-51.758,-46.387,213.379,-61.035,-124.512,1694053248.000,12.683
4254.564,-42.480,-48.828,193.848,-50.781,-161.621,1694053248.000,12.687
4254.568,-42.480,-44.434,-286.621,-60.059,-38.086,1694053248.000,12.691
4254.572,-48.340,-45.898,-548.828,-61.523,83.008,1694053248.000,12.695
4254.576,-46.387,-46.875,-165.039,-50.781,6.348,1694053248.000,12.699
4254.580,-41.504,-43.457,42.480,-51.758,-76.172,1694053248.000,12.702
4254.584,-38.574,-46.387,-11.719,-57.129,-27.832,1694053248.000,12.706
4254.588,-48.828,-52.734,-264.648,-61.035,43.457,1694053248.000,12.710
4254.591,-50.293,-50.293,-300.293,-51.270,-82.520,1694053248.000,12.714
4254.595,-34.668,-44.434,-26.367,-32.715,-167.969,1694053248.000,12.718
4254.610,-25.879,-40.527,-25.879,-18.555,-44.434,1694053248.000,12.733
4254.614,-22.461,-36.133,40.039,-28.809,-35.156,1694053248.000,12.737
4254.618,-30.762,-40.039,84.473,-34.180,-105.469,1694053248.000,12.741
4254.622,-46.875,-44.922,-209.473,-28.809,-114.258,1694053248.000,12.745
4254.626,-38.086,-40.527,-402.832,-38.574,84.961,1694053248.000,12.749
4254.630,-29.297,-37.598,-423.340,-27.832,395.508,1694053248.000,12.753
4254.634,-29.297,-41.992,60.059,-41.504,131.836,1694053248.000,12.757
4254.637,-30.273,-47.852,43.945,-55.176,-133.789,1694053248.000,12.760
4254.641,-40.039,-48.340,-414.551,-56.641,-15.137,1694053248.000,12.764
4254.645,-43.457,-48.828,-74.219,-46.387,-29.785,1694053248.000,12.768
4254.649,-37.598,-50.781,251.465,-38.574,-146.484,1694053248.000,12.772
4254.653,-27.832,-56.152,88.379,-47.363,-89.355,1694053248.000,12.776
4254.653,-26.855,-57.617,-146.973,-44.922,-29.297,1694053248.000,12.775
4254.657,-39.551,-57.129,-294.434,-56.641,-116.211,1694053248.000,12.779
4254.661,-45.898,-60.547,-105.469,-65.918,-167.969,1694053248.000,12.783
4254.665,-45.410,-59.082,40.039,-66.895,-56.152,1694053248.000,12.787
4254.668,-45.410,-56.641,-21.484,-55.176,46.387,1694053248.000,12.791
4254.672,-41.016,-51.758,-12.695,-55.664,43.945,1694053248.000,12.795
4254.676,-42.480,-49.316,-270.508,-66.895,54.199,1694053248.000,12.799
4254.680,-38.086,-43.945,-406.738,-49.805,106.445,1694053248.000,12.802
4254.684,-27.832,-37.598,-455.566,-34.668,283.203,1694053248.000,12.806
4254.688,-38.086,-36.621,-67.871,-63.965,120.117,1694053248.000,12.810
4254.692,-41.504,-37.598,197.754,-61.035,-110.840,1694053248.000,12.814
4254.696,-40.039,-36.621,-219.238,-41.016,-63.477,1694053248.000,12.818
4254.700,-41.992,-36.621,-214.844,-47.852,-69.336,1694053248.000,12.822
4254.703,-36.621,-33.691,121.582,-39.062,-144.043,1694053248.000,12.826
4254.707,-33.691,-32.715,181.152,-42.480,-91.797,1694053248.000,12.830
4254.711,-28.809,-35.156,-35.645,-42.969,16.113,1694053248.000,12.834
4254.715,-27.832,-36.621,-309.570,-47.363,-69.336,1694053248.000,12.838
4254.719,-40.039,-37.598,-354.492,-38.086,-72.266,1694053248.000,12.842
4254.723,-42.969,-41.016,-154.785,-26.855,-53.223,1694053248.000,12.846
4254.727,-32.715,-53.223,-264.648,-48.340,92.773,1694053248.000,12.849
4254.731,-36.133,-55.664,-91.797,-43.457,85.938,1694053248.000,12.853
4254.735,-33.203,-55.176,20.508,-43.457,-141.602,1694053248.000,12.857
4254.739,-36.621,-62.012,-367.188,-46.875,-116.699,1694053248.000,12.861
4254.743,-40.527,-62.012,-134.277,-21.973,-75.195,1694053248.000,12.865
4254.758,-23.926,-53.223,188.477,-33.203,-143.066,1694053248.000,12.880
4254.762,-17.090,-46.387,218.750,-29.297,-178.223,1694053248.000,12.884
4254.766,-22.949,-42.480,-133.789,-21.484,-104.980,1694053248.000,12.888
4254.769,-10.254,-41.992,-375.977,-20.508,-84.961,1694053248.000,12.892
4254.773,-9.766,-46.387,-193.848,-18.066,-81.543,1694053248.000,12.896
4254.777,-32.227,-50.293,-5.371,-30.273,-43.457,1694053248.000,12.900
4254.781,-33.203,-55.176,-21.973,-39.551,138.184,1694053248.000,12.904
4254.785,-39.551,-60.059,-570.312,-41.992,427.246,1694053248.000,12.907
4254.789,-50.781,-61.035,-524.414,-62.988,247.559,1694053248.000,12.911
4254.793,-49.316,-64.453,25.391,-68.848,-113.281,1694053248.000,12.915
4254.797,-50.293,-66.895,20.996,-38.086,-95.215,1694053248.000,12.919
4254.801,-54.688,-71.289,48.828,-25.879,-37.598,1694053248.000,12.923
4254.790,-62.500,-79.102,113.770,-32.715,-126.465,1694053248.000,12.912
4254.794,-63.965,-79.102,-265.137,-34.668,-143.066,1694053248.000,12.916
4254.798,-59.082,-76.172,-255.859,-33.691,-125.488,1694053248.000,12.920
4254.802,-50.293,-84.473,99.609,-10.254,-123.047,1694053248.000,12.924
4254.805,-46.387,-89.355,220.703,0.000,-135.254,1694053248.000,12.928
4254.809,-43.945,-83.008,-81.543,-18.066,-68.848,1694053248.000,12.932
4254.813,-40.039,-76.660,-409.180,-16.113,24.414,1694053248.000,12.936
4254.817,-37.109,-73.242,-179.688,-17.578,-51.270,1694053248.000,12.939
4254.821,-39.551,-70.312,53.711,-17.090,-116.699,1694053248.000,12.943
4254.825,-35.645,-71.777,106.445,-6.836,-93.750,1694053248.000,12.947
4254.829,-32.227,-77.637,-324.707,-29.785,162.598,1694053248.000,12.951
4254.833,-44.922,-85.938,-553.711,-43.945,170.410,1694053248.000,12.955
4254.833,-38.086,-83.984,-123.535,-8.789,-144.043,1694053248.000,12.956
4254.837,-26.855,-77.148,42.969,1.953,-122.559,1694053248.000,12.960
4254.841,-38.086,-81.543,104.980,-11.719,-92.285,1694053248.000,12.964
4254.845,-36.133,-83.008,142.090,-18.066,-144.531,1694053248.000,12.968
4254.849,-35.156,-77.637,-223.633,-29.785,-119.141,1694053248.000,12.972
4254.853,-41.504,-74.707,-473.633,-21.973,48.828,1694053248.000,12.976
4254.857,-39.551,-75.684,-390.137,-21.973,164.062,1694053248.000,12.980
4254.860,-30.762,-79.102,15.625,-22.949,-17.578,1694053248.000,12.983
4254.864,-21.484,-79.590,193.848,-24.902,-166.504,1694053248.000,12.987
4254.868,-31.738,-79.590,-306.641,-29.297,-44.922,1694053248.000,12.991
4254.872,-40.039,-75.684,-463.379,-21.484,45.898,1694053248.000,12.995
4254.876,-39.551,-72.266,11.719,-36.621,-56.641,1694053248.000,12.999
4254.893,-40.527,-68.359,208.496,-37.109,-120.117,1694053248.000,13.015
4254.897,-39.551,-65.918,-15.137,-29.297,-20.508,1694053248.000,13.019
4254.901,-45.898,-60.059,-283.691,-38.086,-41.016,1694053248.000,13.023
4254.905,-38.574,-56.152,-225.098,-43.457,-149.414,1694053248.000,13.027
4254.909,-31.738,-62.988,40.527,-52.246,-125.000,1694053248.000,13.031
4254.912,-32.715,-69.336,6.348,-37.598,19.531,1694053248.000,13.035
4254.916,-45.410,-67.871,70.801,-35.156,27.344,1694053248.000,13.039
4254.920,-52.246,-69.824,-24.414,-41.992,-97.656,1694053248.000,13.042
4254.924,-42.480,-71.289,-377.441,-30.273,-102.539,1694053248.000,13.046
4254.928,-35.645,-64.453,-148.926,-34.668,-54.199,1694053248.000,13.050
4254.932,-48.340,-63.965,176.270,-45.410,-85.938,1694053248.000,13.054
4254.936,-45.410,-63.477,246.094,-37.109,-136.230,1694053248.000,13.058
4254.939,-26.855,-62.500,-151.855,-45.898,-50.781,1694053248.000,13.061
4254.943,-30.273,-60.547,-597.656,-59.570,140.625,1694053248.000,13.065
4254.947,-36.133,-56.641,-113.281,-48.828,0.977,1694053248.000,13.069
4254.951,-37.598,-62.500,244.141,-43.945,-183.594,1694053248.000,13.073
4254.955,-43.457,-67.871,0.000,-41.992,44.922,1694053248.000,13.077
4254.958,-44.434,-69.824,-445.312,-45.898,267.090,1694053248.000,13.081
4254.962,-41.504,-72.754,-461.914,-47.363,31.250,1694053248.000,13.085
4254.966,-41.016,-82.520,-126.953,-49.316,-105.957,1694053248.000,13.088
4254.970,-31.738,-82.031,-182.129,-41.992,57.617,1694053248.000,13.092
4254.974,-31.250,-82.031,-254.395,-21.484,119.141,1694053248.000,13.096
4254.978,-47.852,-83.984,73.730,-39.551,-92.773,1694053248.000,13.100
4254.982,-42.480,-82.520,-208.496,-72.266,-147.461,1694053248.000,13.104
4254.984,-45.898,-82.031,-250.488,-66.895,-106.934,1694053248.000,13.107
4254.988,-40.039,-80.078,113.281,-37.598,-115.234,1694053248.000,13.111
4254.992,-22.461,-57.129,247.070,-39.551,-129.395,1694053248.000,13.115
4254.996,-27.832,-26.367,55.176,-40.039,-112.305,1694053248.000,13.119
4255.000,-36.621,-22.461,-311.523,-65.918,-77.148,1694053248.000,13.123
4255.004,-46.387,-27.344,-290.039,-66.895,-43.457,1694053248.000,13.127
4255.008,-42.969,-24.414,-20.996,-48.340,9.766,1694053248.000,13.131
4255.012,-35.156,-20.996,180.176,-59.082,2.930,1694053248.000,13.134
4255.016,-26.855,-22.461,-257.324,-50.293,204.102,1694053248.000,13.138
4255.020,-24.902,-18.555,-569.824,-45.410,191.406,1694053248.000,13.142
4255.024,-41.016,-12.695,-117.188,-52.246,-157.715,1694053248.000,13.146
4255.027,-44.434,-9.766,60.059,-52.246,-169.434,1694053248.000,13.150
4255.028,-44.434,-6.348,98.145,-75.684,-105.957,1694053248.000,13.151
4255.032,-54.199,-1.953,160.156,-58.105,-117.676,1694053248.000,13.155
4255.036,-49.316,4.395,-94.727,-42.969,-109.863,1694053248.000,13.159
4255.040,-43.457,2.441,-300.293,-60.547,-54.688,1694053248.000,13.163
4255.044,-34.180,-2.930,-162.109,-52.246,13.184,1694053248.000,13.167
4255.048,-14.160,-0.977,81.055,-41.992,17.090,1694053248.000,13.171
4255.052,-41.992,0.488,97.656,-58.594,11.719,1694053248.000,13.175
4255.055,-52.734,-3.418,-349.121,-53.223,108.887,1694053248.000,13.178
4255.059,-43.945,-9.277,-680.176,-47.363,350.586,1694053248.000,13.182
4255.063,-48.828,-14.160,-167.969,-61.523,240.723,1694053248.000,13.186
4255.067,-39.062,-20.996,235.840,-59.570,-89.355,1694053248.000,13.190
4255.071,-47.852,-27.344,103.027,-58.594,-128.906,1694053248.000,13.194
4255.075,-48.340,-26.855,-91.309,-55.176,-102.051,1694053248.000,13.197
4255.078,-55.176,-26.367,-187.988,-56.641,-134.766,1694053248.000,13.201
4255.082,-52.734,-29.785,38.574,-60.059,-125.488,1694053248.000,13.205
4255.086,-31.250,-35.645,147.949,-53.711,-106.934,1694053248.000,13.209
4255.090,-37.598,-35.645,178.223,-64.453,-162.109,1694053248.000,13.213
4255.094,-36.621,-48.340,-125.977,-58.594,-130.859,1694053248.000,13.217
4255.098,-46.387,-69.336,-368.652,-63.477,-100.098,1694053248.000,13.221
4255.102,-47.363,-77.637,-352.051,-68.359,73.242,1694053248.000,13.224
4255.106,-44.434,-83.984,-106.934,-59.570,62.500,1694053248.000,13.228
4255.110,-53.223,-84.961,258.789,-48.340,-171.875,1694053248.000,13.232
4255.114,-49.805,-83.008,-140.137,-48.340,-73.242,1694053248.000,13.236
4255.118,-49.805,-79.102,-461.426,-66.406,-5.371,1694053248.000,13.240
4255.118,-39.062,-70.801,10.742,-62.012,-87.402,1694053248.000,13.240
4255.122,-36.133,-67.871,236.816,-59.570,-104.004,1694053248.000,13.244
4255.126,-41.992,-75.195,115.234,-54.688,-28.320,1694053248.000,13.248
4255.129,-37.109,-83.496,-30.762,-49.316,-28.320,1694053248.000,13.252
4255.133,-46.875,-75.195,-302.734,-71.777,-89.844,1694053248.000,13.256
4255.137,-39.551,-69.824,-191.406,-62.988,-68.359,1694053248.000,13.260
4255.141,-17.578,-70.312,-101.562,-43.945,67.871,1694053248.000,13.264
4255.145,-14.160,-70.312,-420.410,-33.691,331.543,1694053248.000,13.267
4255.149,-21.973,-57.617,-268.066,-44.922,146.484,1694053248.000,13.271
4255.153,-24.414,-21.484,-208.984,-59.570,-133.789,1694053248.000,13.275
4255.157,-22.949,2.441,-233.398,-47.852,-69.824,1694053248.000,13.279
4255.161,-34.180,-13.672,83.496,-51.270,-70.312,1694053248.000,13.283
4255.166,-36.621,-45.410,203.613,-32.715,-107.422,1694053248.000,13.288
4255.170,-42.969,-48.828,-17.090,-34.668,-103.027,1694053248.000,13.292
4255.174,-48.828,-45.410,-373.535,-46.875,-30.762,1694053248.000,13.296
4255.178,-40.527,-45.898,-95.703,-40.039,-35.645,1694053248.000,13.300
4255.182,-57.129,-51.270,185.059,-54.688,-93.262,1694053248.000,13.304
4255.185,-60.059,-50.781,160.645,-52.246,0.488,1694053248.000,13.308
4255.189,-37.598,-44.434,-195.801,-33.203,187.988,1694053248.000,13.312
4255.193,-38.086,-46.875,-493.164,-45.898,98.145,1694053248.000,13.315
4255.197,-47.852,-48.340,-103.516,-70.801,-158.691,1694053248.000,13.319
4255.201,-46.387,-44.922,96.191,-71.289,-144.531,1694053248.000,13.323
4255.205,-35.645,-35.156,70.312,-41.016,-95.215,1694053248.000,13.327
4255.209,-37.109,-50.293,129.395,-51.758,-131.348,1694053248.000,13.331
4255.208,-58.105,-75.195,-75.195,-82.520,-140.625,1694053248.000,13.331
4255.212,-51.270,-85.449,-351.562,-73.730,-52.734,1694053248.000,13.335
4255.216,-41.992,-103.516,-99.609,-66.406,-54.688,1694053248.000,13.339
4255.220,-37.109,-120.117,172.363,-78.125,-109.375,1694053248.000,13.343
4255.224,-41.992,-116.211,98.633,-70.801,-39.551,1694053248.000,13.347
4255.228,-58.105,-112.305,-314.453,-75.195,20.020,1694053248.000,13.351
4255.232,-68.848,-109.863,-717.773,-70.312,298.828,1694053248.000,13.355
4255.235,-59.082,-105.469,-232.910,-65.918,241.211,1694053248.000,13.358
4255.239,-49.316,-113.281,266.602,-69.336,-145.020,1694053248.000,13.362
4255.243,-45.410,-120.605,-3.906,-59.082,-78.613,1694053248.000,13.366
4255.247,-43.457,-112.793,-309.570,-85.938,-50.781,1694053248.000,13.370
4255.251,-50.781,-120.117,-199.707,-81.543,-155.762,1694053248.000,13.374
4255.269,-50.293,-124.023,53.223,-48.828,-154.785,1694053248.000,13.391
4255.272,-55.176,-116.699,157.715,-61.523,-140.137,1694053248.000,13.395
4255.276,-52.246,-116.699,205.566,-77.148,-120.605,1694053248.000,13.399
4255.280,-35.156,-111.816,70.801,-69.824,-134.277,1694053248.000,13.403
4255.284,-58.594,-110.840,-235.352,-52.246,-62.988,1694053248.000,13.407
4255.288,-51.758,-108.887,-237.793,-52.734,50.781,1694053248.000,13.411
4255.292,-9.277,-110.352,31.250,-29.297,5.859,1694053248.000,13.415
4255.296,-32.715,-105.469,158.691,-48.340,-56.152,1694053248.000,13.418
4255.300,-43.945,-98.633,-98.145,-65.918,-107.422,1694053248.000,13.422
4255.304,-32.227,-93.262,-581.543,-48.340,111.328,1694053248.000,13.426
4255.308,-32.715,-76.172,-242.188,-43.945,183.105,1694053248.000,13.430
4255.312,-33.203,-77.637,289.062,-39.062,-82.520,1694053248.000,13.434
4255.313,-48.828,-63.477,117.188,-43.945,-75.195,1694053248.000,13.436
4255.317,-52.246,-25.391,-52.246,-51.758,23.438,1694053248.000,13.440
4255.321,-44.434,-14.648,-133.789,-73.242,-25.879,1694053248.000,13.444
4255.325,-44.922,-17.578,29.297,-72.754,-109.863,1694053248.000,13.448
4255.329,-68.359,-21.973,11.719,-47.852,23.926,1694053248.000,13.452
4255.333,-60.547,-28.320,-98.633,-55.664,86.914,1694053248.000,13.456
4255.337,-25.879,-32.227,-1.953,-76.172,0.000,1694053248.000,13.460
4255.341,-39.062,-40.527,-276.855,-88.379,-61.035,1694053248.000,13.463
4255.344,-48.828,-43.457,-377.930,-81.055,8.301,1694053248.000,13.467
4255.348,-41.992,-37.109,-426.270,-53.223,362.793,1694053248.000,13.471
4255.352,-36.133,-61.035,-1.953,-53.711,162.109,1694053248.000,13.475
4255.356,-47.363,-96.680,177.246,-77.637,-132.812,1694053248.000,13.479
4255.360,-61.035,-100.098,-250.977,-89.355,-71.777,1694053248.000,13.482
4255.364,-56.641,-82.520,-157.227,-73.730,-117.188,1694053248.000,13.486
4255.368,-44.922,-78.613,189.453,-71.777,-151.367,1694053248.000,13.490
4255.372,-38.574,-79.102,199.219,-80.078,-119.629,1694053248.000,13.494
4255.376,-45.410,-82.031,61.523,-55.176,-93.750,1694053248.000,13.498
4255.379,-47.852,-84.961,-246.094,-65.918,32.715,1694053248.000,13.502
4255.383,-34.180,-78.125,-344.238,-80.566,-12.207,1694053248.000,13.506
4255.387,-51.758,-55.176,0.488,-73.730,-131.836,1694053248.000,13.509
4255.391,-54.688,-60.059,-115.234,-61.523,93.262,1694053248.000,13.513
4255.395,-16.602,-67.383,-104.492,-34.668,73.242,1694053248.000,13.517
4255.399,-28.320,-61.523,8.789,-48.828,-160.645,1694053248.000,13.521
4255.403,-33.691,-67.383,-364.746,-61.523,-117.188,1694053248.000,13.525
4255.403,-33.203,-67.383,-139.648,-42.480,-41.992,1694053248.000,13.525
4255.407,-34.668,-62.012,225.098,-49.805,-94.238,1694053248.000,13.529
4255.411,-31.250,-69.336,232.422,-56.152,-100.098,1694053248.000,13.533
4255.415,-52.734,-78.125,-156.250,-50.293,-18.555,1694053248.000,13.537
4255.418,-43.457,-69.336,-443.848,-58.105,-8.789,1694053248.000,13.541
4255.422,-40.527,-67.871,-113.770,-64.941,-49.316,1694053248.000,13.545
4255.426,-67.871,-71.289,143.555,-68.359,-49.316,1694053248.000,13.549
4255.430,-60.059,-78.125,-47.852,-58.594,62.500,1694053248.000,13.552
4255.434,-57.129,-77.148,-590.820,-53.223,265.625,1694053248.000,13.556
4255.438,-62.012,-70.312,-411.621,-56.641,84.961,1694053248.000,13.560
4255.442,-54.688,-76.172,94.727,-54.688,-161.621,1694053248.000,13.564
4255.446,-61.035,-65.918,181.641,-61.523,-113.281,1694053248.000,13.568
4255.450,-67.871,-63.965,200.684,-81.055,-101.562,1694053248.000,13.572
4255.453,-53.223,-71.289,47.852,-80.566,-152.344,1694053248.000,13.576
4255.457,-53.223,-67.871,-281.738,-63.965,-111.816,1694053248.000,13.580
4255.461,-51.270,-76.660,-249.023,-57.129,8.301,1694053248.000,13.584
4255.465,-45.410,-70.312,65.430,-56.152,-34.668,1694053248.000,13.588
4255.469,-56.152,-64.453,170.410,-48.828,-65.430,1694053248.000,13.592
4255.473,-50.293,-72.266,-98.633,-58.594,-26.367,1694053248.000,13.596
4255.477,-46.387,-62.012,-525.391,-69.824,132.812,1694053248.000,13.599
4255.481,-56.152,-52.734,-215.820,-54.199,78.613,1694053248.000,13.603
4255.485,-42.969,-60.059,245.117,-55.664,-166.016,1694053248.000,13.607
4255.489,-43.457,-63.965,152.344,-73.242,-108.887,1694053248.000,13.611
4255.492,-36.133,-61.035,-79.102,-70.312,-78.125,1694053248.000,13.615
4255.493,-31.250,-62.500,-274.902,-69.824,-113.770,1694053248.000,13.616
4255.497,-39.062,-50.293,-28.320,-80.566,-121.582,1694053248.000,13.620
4255.501,-30.762,-52.734,116.699,-65.918,-64.453,1694053248.000,13.624
4255.505,-38.086,-60.547,111.816,-55.176,-61.523,1694053248.000,13.628
4255.509,-32.715,-61.035,-47.363,-51.270,-56.152,1694053248.000,13.632
4255.513,-34.180,-58.105,-383.789,-62.988,-62.988,1694053248.000,13.636
4255.517,-46.387,-48.340,-355.957,-59.570,-5.859,1694053248.000,13.640
4255.520,-32.227,-52.246,-510.742,-35.156,378.906,1694053248.000,13.643
4255.524,-38.574,-43.945,-150.879,-52.246,243.164,1694053248.000,13.647
4255.528,-38.574,-40.039,163.086,-63.477,-190.430,1694053248.000,13.651
4255.532,-44.434,-44.434,-301.270,-86.426,-117.188,1694053248.000,13.655
4255.536,-31.250,-42.969,-141.113,-62.988,-64.453,1694053248.000,13.659
4255.539,-25.391,-55.176,215.820,-47.363,-161.133,1694053248.000,13.662
4255.543,-62.988,-54.688,188.477,-89.844,-173.828,1694053248.000,13.666
4255.547,-56.152,-52.734,1.465,-78.613,-115.723,1694053248.000,13.670
4255.551,-49.316,-59.082,-265.137,-72.266,-63.477,1694053248.000,13.674
4255.555,-45.410,-64.941,-223.633,-67.383,-102.051,1694053248.000,13.678
4255.559,-56.641,-57.129,70.312,-64.453,-93.262,1694053248.000,13.682
4255.563,-66.895,-64.453,-166.992,-61.523,149.902,1694053248.000,13.686
4255.567,-70.801,-68.359,-166.504,-76.660,139.648,1694053248.000,13.689
4255.571,-65.430,-63.477,-81.543,-88.379,-123.535,1694053248.000,13.693
4255.575,-50.781,-67.871,-410.645,-83.008,-126.953,1694053248.000,13.697
4255.579,-60.547,-71.289,-113.281,-67.871,-34.180,1694053248.000,13.701
4255.582,-77.637,-50.781,207.031,-71.289,-79.102,1694053248.000,13.705
4255.583,-58.105,-44.922,233.887,-84.961,-140.625,1694053248.000,13.706
4255.587,-15.625,-69.824,-145.508,-68.359,-55.664,1694053248.000,13.710
4255.591,-47.363,-66.406,-357.422,-70.312,-32.715,1694053248.000,13.714
4255.595,-61.523,-73.730,73.730,-75.195,-83.496,1694053248.000,13.718
4255.599,-27.832,-71.289,210.449,-53.711,-27.832,1694053248.000,13.722
4255.603,-26.855,-64.453,-40.039,-49.805,147.461,1694053248.000,13.726
4255.607,-31.738,-75.195,-466.309,-56.641,306.641,1694053248.000,13.730
4255.611,-28.320,-63.477,-341.797,-69.336,57.129,1694053248.000,13.733
4255.614,-24.902,-63.477,112.305,-62.988,-154.785,1694053248.000,13.737
4255.618,-10.742,-71.777,37.109,-38.574,7.324,1694053248.000,13.741
4255.622,-14.648,-65.918,40.527,-41.016,-3.418,1694053248.000,13.745
4255.626,-32.227,-66.406,-17.578,-50.781,-40.039,1694053248.000,13.749
4255.631,-35.645,-72.266,-386.719,-46.875,-31.738,1694053248.000,13.754
4255.635,-32.227,-61.035,-247.559,-43.457,-59.082,1694053248.000,13.758
4255.639,-21.484,-60.059,82.520,-48.340,-91.797,1694053248.000,13.762
4255.643,-19.531,-73.730,256.836,-41.504,-156.250,1694053248.000,13.766
4255.647,-36.133,-69.824,63.477,-44.434,-113.281,1694053248.000,13.770
4255.651,-35.645,-56.641,-305.664,-44.434,-18.066,1694053248.000,13.774
4255.655,-20.508,-63.965,-216.309,-52.246,-24.414,1694053248.000,13.778
4255.659,-29.297,-60.547,162.598,-53.223,-85.449,1694053248.000,13.781
4255.663,-39.551,-62.988,188.965,-42.480,-80.566,1694053248.000,13.785
4255.667,-28.809,-77.637,-184.082,-41.016,77.148,1694053248.000,13.789
4255.670,-26.855,-79.590,-336.426,-38.086,49.316,1694053248.000,13.793
4255.674,-32.715,-65.430,-20.508,-56.641,-121.094,1694053248.000,13.797
4255.689,-34.180,-66.406,143.066,-49.805,-67.383,1694053248.000,13.811
4255.693,-41.992,-73.242,76.172,-28.320,36.621,1694053248.000,13.815
4255.697,-35.645,-52.246,83.496,-39.062,-19.531,1694053248.000,13.819
4255.701,-47.363,-64.453,-139.160,-41.016,-146.484,1694053248.000,13.823
4255.705,-43.457,-56.152,-381.836,-38.574,12.695,1694053248.000,13.827
4255.709,-29.785,-21.484,-384.277,-52.246,263.184,1694053248.000,13.831
4255.712,-35.645,-19.531,7.812,-52.734,115.723,1694053248.000,13.835
4255.716,-37.598,-20.508,139.160,-50.293,-121.582,1694053248.000,13.838
4255.720,-58.105,-22.949,-405.273,-65.918,-0.977,1694053248.000,13.842
4255.724,-59.570,-21.973,-360.840,-69.336,85.449,1694053248.000,13.846
4255.728,-48.340,-27.344,207.031,-54.199,-131.836,1694053248.000,13.850
4255.732,-44.922,-38.086,189.941,-55.664,-142.578,1694053248.000,13.854
4255.735,-46.387,-32.227,137.695,-70.801,-76.660,1694053248.000,13.857
4255.739,-67.383,-31.738,-87.891,-78.125,-90.820,1694053248.000,13.861
4255.742,-43.945,-38.574,-152.832,-70.312,-106.934,1694053248.000,13.865
4255.746,-26.855,-33.691,103.516,-57.617,-118.652,1694053248.000,13.869
4255.750,-39.551,-39.551,146.484,-47.852,-26.367,1694053248.000,13.873
4255.754,-28.809,-43.945,104.492,-44.434,55.176,1694053248.000,13.877
4255.758,-38.086,-41.504,-198.242,-59.082,8.789,1694053248.000,13.881
4255.762,-41.504,-41.504,-306.152,-62.012,-92.773,1694053248.000,13.884
4255.766,-45.898,-42.969,-377.930,-45.898,99.121,1694053248.000,13.888
4255.770,-52.734,-53.711,-202.637,-35.645,175.293,1694053248.000,13.892
4255.774,-31.738,-55.176,289.551,-47.363,-104.980,1694053248.000,13.896
4255.778,-25.879,-50.781,-107.422,-56.641,-106.445,1694053248.000,13.900
4255.778,-33.203,-46.875,-375.977,-52.734,-67.871,1694053248.000,13.900
4255.782,-49.316,-49.316,74.707,-49.316,-118.164,1694053248.000,13.904
4255.786,-62.012,-46.875,221.680,-57.617,-145.020,1694053248.000,13.908
4255.789,-51.270,-45.898,124.512,-52.246,-82.031,1694053248.000,13.912
4255.793,-47.852,-42.480,-159.180,-57.129,-42.480,1694053248.000,13.916
4255.797,-54.199,-40.527,-369.141,-62.988,-81.543,1694053248.000,13.920
4255.801,-47.363,-45.410,-167.969,-61.035,-70.801,1694053248.000,13.924
4255.805,-24.902,-56.152,-85.938,-51.270,75.195,1694053248.000,13.927
4255.809,-30.273,-64.941,-382.324,-41.992,332.031,1694053248.000,13.931
4255.813,-24.414,-61.035,-376.953,-45.410,187.012,1694053248.000,13.935
4255.817,-39.551,-59.082,-249.023,-54.199,-125.488,1694053248.000,13.939
4255.821,-60.059,-72.754,-161.621,-55.664,-139.648,1694053248.000,13.943
4255.825,-27.344,-76.172,119.141,-39.062,-133.789,1694053248.000,13.947
4255.829,-16.113,-72.754,260.742,-49.316,-155.762,1694053248.000,13.951
4255.833,-33.691,-80.566,60.547,-56.152,-151.855,1694053248.000,13.955
4255.837,-32.227,-85.449,-295.898,-43.457,-123.047,1694053248.000,13.959
4255.840,-34.180,-75.684,-89.355,-50.293,-144.531,1694053248.000,13.963
4255.844,-33.691,-73.730,149.414,-57.617,-101.074,1694053248.000,13.967
4255.848,-11.230,-76.172,151.855,-45.410,0.977,1694053248.000,13.971
4255.852,-17.578,-83.008,-227.051,-43.945,141.602,1694053248.000,13.974
4255.856,-27.344,-84.961,-484.375,-57.129,83.496,1694053248.000,13.978
4255.860,-28.320,-77.148,-31.738,-53.223,-121.582,1694053248.000,13.982
4255.864,-38.086,-70.312,96.680,-70.801,-55.664,1694053248.000,13.986
4255.868,-34.180,-64.941,54.688,-69.824,12.695,1694053248.000,13.990
4255.868,-30.273,-74.219,161.133,-53.711,-66.895,1694053248.000,13.990
4255.872,-39.551,-79.590,-104.004,-69.336,-123.047,1694053248.000,13.994
4255.876,-41.992,-87.402,-333.496,-49.805,-85.938,1694053248.000,13.998
4255.880,-32.227,-75.684,-50.293,-45.898,-86.914,1694053248.000,14.002
4255.884,-29.785,-60.547,184.570,-52.246,-80.078,1694053248.000,14.006
4255.888,-40.527,-64.941,55.176,-63.477,-43.457,1694053248.000,14.010
4255.891,-25.879,-67.383,-360.840,-53.711,67.383,1694053248.000,14.014
4255.895,-49.805,-64.453,-664.551,-35.645,312.988,1694053248.000,14.017
4255.899,-59.570,-52.734,-149.414,-40.039,90.820,1694053248.000,14.021
4255.903,-41.504,-48.828,260.742,-34.180,-147.949,1694053248.000,14.025
4255.907,-41.504,-65.430,95.215,-56.641,-44.922,1694053248.000,14.029
4255.911,-45.898,-82.520,-158.691,-83.008,-83.008,1694053248.000,14.033
4255.916,-69.336,-78.613,-273.438,-73.242,-135.742,1694053248.000,14.038
4255.920,-49.316,-67.871,-31.250,-54.199,-95.703,1694053248.000,14.042
4255.924,-42.969,-72.266,21.973,-46.875,-2.930,1694053248.000,14.046
4255.928,-56.641,-62.988,105.469,-51.758,-28.320,1694053248.000,14.050
4255.932,-37.109,-63.477,-32.227,-57.617,-116.211,1694053248.000,14.054
4255.935,-33.203,-66.895,-366.699,-51.758,-100.098,1694053248.000,14.058
4255.939,-48.828,-54.199,-291.992,-51.270,119.629,1694053248.000,14.062
4255.943,-42.480,-61.035,31.250,-31.250,121.582,1694053248.000,14.065
4255.947,-35.645,-76.660,290.527,-30.273,-125.488,1694053248.000,14.069
4255.951,-59.082,-64.453,-106.934,-58.105,-129.395,1694053248.000,14.073
4255.955,-38.574,-55.176,-370.605,-43.457,-60.059,1694053248.000,14.077
4255.959,-15.625,-57.617,58.105,-34.668,-85.938,1694053248.000,14.081
4255.958,-36.621,-52.734,253.418,-45.410,-132.812,1694053248.000,14.081
4255.962,-45.898,-52.734,128.906,-50.781,-83.008,1694053248.000,14.085
4255.966,-57.129,-62.012,-162.109,-63.965,-84.473,1694053248.000,14.089
4255.970,-63.477,-58.105,-324.707,-67.383,-96.680,1694053248.000,14.093
4255.974,-42.969,-55.664,-108.398,-59.570,-72.266,1694053248.000,14.097
4255.978,-40.039,-53.711,-27.832,-40.527,79.102,1694053248.000,14.101
4255.982,-65.430,-58.105,-383.301,-61.523,407.227,1694053248.000,14.105
4255.985,-56.641,-59.082,-390.625,-69.824,193.359,1694053248.000,14.108
4255.989,-21.484,-46.387,-228.516,-40.527,-172.363,1694053248.000,14.112
4255.993,-20.996,-50.293,-256.836,-22.949,-44.922,1694053248.000,14.116
4255.997,-31.250,-35.645,1.465,-16.602,-10.742,1694053248.000,14.120
4256.001,-53.223,-15.137,273.438,-40.039,-154.785,1694053248.000,14.124
4256.018,-45.410,0.977,73.242,-31.738,-143.555,1694053248.000,14.141
4256.022,-24.414,8.789,-290.039,-31.250,-102.539,1694053248.000,14.145
4256.026,-34.668,8.301,-76.172,-34.180,-115.723,1694053248.000,14.149
4256.030,-28.809,-5.371,238.770,-28.320,-134.766,1694053248.000,14.153
4256.034,-31.738,-5.371,208.008,-43.457,-101.562,1694053248.000,14.157
4256.038,-41.016,-29.785,-92.773,-40.527,-0.977,1694053248.000,14.161
4256.042,-26.855,-62.012,-388.672,-30.273,40.527,1694053248.000,14.165
4256.046,-32.227,-55.176,-263.184,-28.809,6.348,1694053248.000,14.168
4256.049,-46.875,-44.922,80.078,-51.270,-42.969,1694053248.000,14.172
4256.053,-41.504,-45.410,-116.699,-40.039,142.578,1694053248.000,14.176
4256.057,-57.129,-63.965,-315.918,-28.320,148.926,1694053248.000,14.180
4256.061,-62.012,-63.477,-189.941,-47.363,-111.816,1694053248.000,14.184
4256.063,-42.480,-63.477,-271.484,-61.035,-92.285,1694053248.000,14.185
4256.067,-41.504,-58.105,-30.273,-56.152,-55.176,1694053248.000,14.189
4256.071,-46.875,-63.965,239.258,-41.992,-83.496,1694053248.000,14.193
4256.074,-64.453,-62.500,193.359,-52.734,-133.789,1694053248.000,14.197
4256.078,-51.270,-51.270,-288.574,-61.035,-9.766,1694053248.000,14.201
4256.082,-45.410,-56.152,-490.723,-84.473,131.348,1694053248.000,14.205
4256.086,-41.016,-57.129,-41.016,-56.641,64.941,1694053248.000,14.209
4256.090,-66.406,-63.965,201.660,-28.320,-36.133,1694053248.000,14.212
4256.094,-78.125,-68.359,-41.504,-45.410,40.527,1694053248.000,14.216
4256.098,-38.086,-60.059,-609.863,-28.809,339.844,1694053248.000,14.220
4256.102,-40.039,-52.246,-314.941,-40.039,122.559,1694053248.000,14.224
4256.106,-39.551,-50.781,194.336,-43.945,-154.297,1694053248.000,14.228
4256.110,-38.086,-64.941,66.895,-42.969,-78.613,1694053248.000,14.232
4256.114,-43.945,-71.777,118.652,-56.641,-88.379,1694053248.000,14.236
4256.117,-38.086,-79.102,40.039,-57.617,-161.133,1694053248.000,14.240
4256.121,-44.922,-86.914,-263.184,-67.383,-155.762,1694053248.000,14.244
4256.125,-42.969,-74.707,-66.406,-60.059,-127.930,1694053248.000,14.248
4256.129,-54.199,-77.637,163.574,-70.312,-83.008,1694053248.000,14.252
4256.133,-48.828,-78.613,148.438,-71.777,-10.254,1694053248.000,14.256
4256.137,-26.367,-68.848,-104.980,-53.711,-94.727,1694053248.000,14.259
4256.141,-48.340,-68.359,-509.766,-50.781,59.082,1694053248.000,14.263
4256.145,-49.805,-68.359,-161.621,-50.293,101.074,1694053248.000,14.267
4256.149,-62.988,-79.102,277.832,-62.012,-150.879,1694053248.000,14.271
4256.153,-43.457,-64.941,165.039,-44.434,-68.848,1694053248.000,14.275
4256.153,-34.180,-66.895,-138.672,-53.223,40.039,1694053248.000,14.275
4256.157,-62.988,-83.008,-290.527,-65.918,-80.078,1694053248.000,14.279
4256.161,-57.617,-72.754,76.172,-71.289,-144.043,1694053248.000,14.283
4256.164,-26.855,-68.359,64.941,-54.199,-55.664,1694053248.000,14.287
4256.168,-7.324,-19.043,-137.207,-28.809,43.945,1694053248.000,14.291
4256.172,-28.809,15.137,-83.008,-47.852,27.344,1694053248.000,14.295
4256.176,-28.320,10.254,-301.270,-54.688,-12.207,1694053248.000,14.299
4256.180,-49.805,0.488,-363.770,-60.059,106.445,1694053248.000,14.302
4256.184,-57.129,1.465,-277.832,-66.406,193.359,1694053248.000,14.306
4256.188,-39.551,-0.488,145.508,-49.805,-36.621,1694053248.000,14.310
4256.192,-22.949,-12.695,192.383,-39.062,-183.594,1694053248.000,14.314
4256.196,-20.020,-6.348,-395.996,-46.387,18.555,1694053248.000,14.318
4256.200,-51.270,-2.441,-273.926,-51.270,121.582,1694053248.000,14.322
4256.203,-29.297,-12.207,249.512,-50.293,-126.953,1694053248.000,14.326
4256.207,-18.555,-13.672,182.129,-19.043,-125.977,1694053248.000,14.330
4256.211,-41.016,-13.184,-45.898,-23.438,25.391,1694053248.000,14.334
4256.215,-40.039,-24.902,-315.430,-46.387,-63.965,1694053248.000,14.338
4256.219,-44.434,-31.250,-274.414,-41.016,-84.473,1694053248.000,14.342
4256.223,-64.941,-29.785,65.430,-60.059,-20.020,1694053248.000,14.346
4256.227,-48.828,-23.926,-128.906,-46.875,82.520,1694053248.000,14.349
4256.231,-22.949,-21.484,-167.969,-22.461,67.871,1694053248.000,14.353
4256.235,-45.410,-31.738,3.418,-45.410,-145.020,1694053248.000,14.357
4256.239,-55.664,-38.574,-223.145,-63.477,-106.445,1694053248.000,14.361
4256.242,-42.969,-29.297,-31.738,-48.340,-59.570,1694053248.000,14.365
4256.243,-37.109,-41.504,220.703,-23.438,-116.699,1694053248.000,14.365
4256.247,-41.992,-41.504,237.793,-37.598,-107.422,1694053248.000,14.369
4256.251,-46.387,-31.738,-171.387,-45.410,-84.961,1694053248.000,14.373
4256.255,-34.180,-34.180,-306.641,-36.133,-78.613,1694053248.000,14.377
4256.259,-31.738,-40.039,54.199,-53.223,-54.199,1694053248.000,14.381
4256.263,-40.527,-25.391,170.898,-61.523,0.488,1694053248.000,14.385
4256.266,-65.918,-33.691,-17.578,-62.012,80.566,1694053248.000,14.389
4256.270,-55.176,-56.641,-608.887,-41.992,329.102,1694053248.000,14.392
4256.274,-27.344,-35.156,-450.195,-18.555,235.352,1694053248.000,14.396
4256.278,-38.086,-47.363,155.762,-24.414,-111.328,1694053248.000,14.400
4256.282,-61.035,-57.129,29.785,-59.570,-75.684,1694053248.000,14.404
4256.286,-42.969,-48.340,32.715,-59.082,-43.945,1694053248.000,14.408
4256.304,-42.969,-57.129,80.078,-40.039,-176.758,1694053248.000,14.426
4256.308,-43.945,-53.223,-222.656,-57.129,-188.965,1694053248.000,14.430
4256.311,-43.457,-44.434,-111.328,-62.988,-124.023,1694053248.000,14.434
4256.315,-44.434,-51.758,151.855,-41.504,-130.371,1694053248.000,14.438
4256.319,-51.270,-48.828,219.238,-38.574,-118.164,1694053248.000,14.442
4256.323,-45.898,-40.039,-57.617,-49.316,-31.250,1694053248.000,14.446
4256.327,-22.949,-52.734,-526.367,-45.898,190.918,1694053248.000,14.450
4256.331,-26.855,-48.340,-214.355,-26.855,145.508,1694053248.000,14.453
4256.335,-14.160,-35.645,222.168,-22.461,-113.770,1694053248.000,14.457
4256.339,-28.320,-41.016,127.930,-30.273,-79.590,1694053248.000,14.461
4256.343,-58.105,-45.898,-138.672,-36.621,-19.043,1694053248.000,14.465
4256.347,-51.758,-53.711,-292.969,-54.688,-103.516,1694053248.000,14.469
4256.333,-32.715,-55.664,23.926,-50.781,-182.129,1694053248.000,14.455
4256.337,-24.414,-42.969,130.371,-24.414,-127.930,1694053248.000,14.459
4256.341,-3.418,-38.086,125.977,-24.902,-85.449,1694053248.000,14.463
4256.345,-30.762,-39.551,126.465,-41.016,-109.863,1694053248.000,14.467
4256.349,-59.082,-33.691,-176.758,-56.641,-102.051,1694053248.000,14.471
4256.353,-43.945,-34.668,-376.953,-35.645,29.297,1694053248.000,14.475
4256.356,-20.020,-39.062,-267.090,-19.043,130.859,1694053248.000,14.479
4256.360,-13.672,-35.156,147.949,-41.016,-14.160,1694053248.000,14.482
4256.364,-27.832,-40.039,212.402,-48.828,-110.352,1694053248.000,14.486
4256.368,-45.898,-42.969,-337.891,-54.199,75.684,1694053248.000,14.490
4256.372,-46.875,-36.133,-498.535,-28.809,201.660,1694053248.000,14.494
4256.376,-8.789,-26.855,80.078,-24.902,9.766,1694053248.000,14.498
4256.393,-48.340,-16.602,261.230,-52.734,-97.656,1694053248.000,14.515
4256.397,-43.945,-41.016,-4.883,-39.551,-26.367,1694053248.000,14.519
4256.401,-13.184,-38.574,-274.414,-42.480,-8.789,1694053248.000,14.523
4256.405,-21.973,-25.879,-68.848,-54.199,-128.418,1694053248.000,14.527
4256.409,-36.133,-36.133,181.641,-49.316,-109.375,1694053248.000,14.531
4256.413,-35.645,-42.969,110.352,-45.410,7.324,1694053248.000,14.535
4256.416,-27.344,-31.250,81.055,-39.062,0.000,1694053248.000,14.539
4256.420,-32.227,-35.645,-95.703,-46.387,-95.703,1694053248.000,14.542
4256.424,-30.762,-37.598,-255.859,-44.922,-113.281,1694053248.000,14.546
4256.428,-53.711,-34.180,-216.309,-33.203,46.875,1694053248.000,14.550
4256.432,-56.641,-40.527,98.145,-29.785,28.320,1694053248.000,14.554
4256.436,-50.781,-55.176,258.789,-40.039,-104.004,1694053248.000,14.558
4256.439,-49.316,-60.059,-158.203,-45.898,-59.570,1694053248.000,14.561
4256.443,-41.504,-52.734,-369.141,-48.340,-20.996,1694053248.000,14.565
4256.447,-39.551,-66.406,8.301,-49.805,-6.348,1694053248.000,14.569
4256.451,-63.965,-51.270,274.902,-44.434,-138.184,1694053248.000,14.573
4256.455,-77.148,-55.176,10.254,-45.898,-21.973,1694053248.000,14.577
4256.458,-51.270,-64.941,-450.195,-41.016,236.328,1694053248.000,14.581
4256.462,-59.570,-64.453,-380.859,-54.688,27.344,1694053248.000,14.585
4256.466,-74.219,-63.477,-15.625,-70.312,-108.398,1694053248.000,14.588
4256.470,-64.453,-62.012,-31.250,-49.805,-0.977,1694053248.000,14.592
4256.474,-52.734,-60.059,-174.805,-44.434,90.332,1694053248.000,14.596
4256.478,-48.828,-43.945,-1.953,-47.852,-73.730,1694053248.000,14.600
4256.482,-54.199,-63.477,-233.887,-58.594,-112.305,1694053248.000,14.604
4256.485,-66.406,-66.895,-207.031,-72.266,-13.672,1694053248.000,14.607
4256.488,-68.848,-60.547,115.234,-59.570,-53.223,1694053248.000,14.611
4256.492,-53.711,-80.078,253.418,-66.895,-149.414,1694053248.000,14.615
4256.496,-39.062,-67.871,38.574,-59.082,-130.859,1694053248.000,14.619
4256.500,-32.715,-63.965,-308.594,-43.457,-33.691,1694053248.000,14.623
4256.504,-53.711,-63.477,-179.199,-51.270,-11.719,1694053248.000,14.627
4256.508,-50.293,-48.828,83.008,-53.711,-56.641,1694053248.000,14.631
4256.512,-35.645,-56.641,188.965,-34.180,-127.930,1694053248.000,14.634
4256.516,-34.668,-61.523,-274.414,-36.133,97.656,1694053248.000,14.638
4256.520,-47.852,-52.246,-547.363,-62.500,185.059,1694053248.000,14.642
4256.524,-67.383,-59.082,45.410,-62.012,-142.090,1694053248.000,14.646
4256.527,-44.434,-45.898,189.453,-40.527,-109.375,1694053248.000,14.650
4256.528,-41.504,-45.898,144.043,-60.547,-50.781,1694053248.000,14.650
4256.532,-74.219,-58.105,132.812,-94.238,-104.004,1694053248.000,14.654
4256.536,-94.238,-42.969,-133.301,-83.984,-77.637,1694053248.000,14.658
4256.539,-49.805,-43.457,-141.113,-48.828,-21.484,1694053248.000,14.662
4256.543,-29.785,-54.688,46.875,-40.527,58.594,1694053248.000,14.666
4256.547,-49.805,-59.082,177.734,-46.387,96.680,1694053248.000,14.670
4256.551,-52.246,-53.711,54.688,-61.035,32.227,1694053248.000,14.674
4256.555,-66.895,-52.734,-371.582,-73.242,76.172,1694053248.000,14.677
4256.559,-73.730,-30.762,-600.098,-76.660,322.754,1694053248.000,14.681
4256.563,-64.941,3.906,-157.715,-52.246,218.262,1694053248.000,14.685
4256.567,-40.527,8.789,290.527,-36.621,-92.773,1694053248.000,14.689
4256.571,-37.598,-6.348,65.430,-62.500,-115.234,1694053248.000,14.693
4256.575,-51.758,-11.719,-241.699,-77.637,-112.305,1694053248.000,14.697
4256.578,-49.316,-13.184,-61.523,-81.055,-151.367,1694053248.000,14.701
4256.582,-14.160,-20.996,182.617,-36.621,-124.023,1694053248.000,14.705
4256.586,-20.996,-20.996,193.359,-16.113,-44.922,1694053248.000,14.709
4256.590,-59.570,-20.996,178.223,-42.969,-61.523,1694053248.000,14.713
4256.594,-39.062,-36.621,-176.758,-49.805,-102.051,1694053248.000,14.717
4256.598,-14.648,-23.438,-290.039,-33.203,-35.645,1694053248.000,14.721
4256.602,-34.180,-6.348,-311.523,-26.367,153.320,1694053248.000,14.724
4256.606,-37.598,-16.602,-103.027,-21.973,111.328,1694053248.000,14.728
4256.610,-42.969,-27.344,266.113,-30.273,-136.230,1694053248.000,14.732
4256.614,-51.270,-28.320,-189.453,-47.363,-86.426,1694053248.000,14.736
4256.617,-63.477,-32.715,-369.141,-71.289,5.371,1694053248.000,14.740
4256.618,-61.035,-36.621,108.887,-58.105,-96.191,1694053248.000,14.740
4256.622,-46.875,-48.340,272.461,-37.109,-126.465,1694053248.000,14.744
4256.626,-41.992,-66.406,131.348,-45.410,-49.316,1694053248.000,14.748
4256.630,-55.176,-54.199,-177.734,-41.504,-61.035,1694053248.000,14.752
4256.633,-65.430,-52.246,-316.895,-36.621,-26.855,1694053248.000,14.756
4256.637,-59.570,-50.781,-39.551,-48.340,-50.293,1694053248.000,14.760
4256.641,-32.715,-43.945,4.395,-13.184,37.109,1694053248.000,14.764
4256.645,-46.387,-54.199,-404.785,-14.648,357.422,1694053248.000,14.767
4256.649,-75.195,-62.012,-377.441,-53.223,119.141,1694053248.000,14.771
4256.653,-80.078,-42.969,-208.984,-54.688,-179.199,1694053248.000,14.775
4256.657,-90.820,-43.457,-97.168,-53.711,-118.652,1694053248.000,14.779
4256.661,-37.598,-61.523,133.301,-26.367,-107.910,1694053248.000,14.783
4256.666,-18.555,-60.059,196.777,-45.898,-115.234,1694053248.000,14.788
4256.670,-45.898,-59.082,-105.957,-49.805,-96.680,1694053248.000,14.792
4256.674,-54.688,-49.316,-406.250,-24.414,-45.410,1694053248.000,14.796
4256.678,-48.828,-61.523,5.859,-40.039,-76.660,1694053248.000,14.800
4256.682,-33.203,-59.570,232.910,-56.152,-177.734,1694053248.000,14.804
4256.686,-16.602,-59.570,139.648,-41.016,-93.262,1694053248.000,14.808
4256.689,-66.406,-74.219,-204.102,-47.852,182.129,1694053248.000,14.812
4256.693,-65.918,-62.012,-426.758,-61.523,112.305,1694053248.000,14.815
4256.697,-35.645,-59.570,20.996,-49.805,-185.547,1694053248.000,14.819
4256.701,-42.480,-59.082,170.898,-47.852,-144.043,1694053248.000,14.823
4256.705,-20.996,-54.199,139.648,-32.715,-25.391,1694053248.000,14.827
4256.709,-27.344,-58.105,132.324,-32.715,-73.730,1694053248.000,14.831
4256.708,-52.734,-66.895,-141.113,-46.875,-200.684,1694053248.000,14.830
4256.712,-13.184,-65.430,-293.457,-43.945,-120.605,1694053248.000,14.834
4256.716,-8.301,-54.688,-102.539,-35.645,-41.016,1694053248.000,14.838
4256.720,-18.555,-66.895,200.684,-32.227,-59.570,1694053248.000,14.842
4256.724,-18.066,-52.734,57.617,-34.668,-31.738,1694053248.000,14.846
4256.727,-38.574,-50.293,-379.395,-26.367,66.895,1694053248.000,14.850
4256.731,-27.832,-70.312,-636.230,-22.949,375.000,1694053248.000,14.854
4256.735,-32.715,-63.477,-193.848,-24.902,236.816,1694053248.000,14.857
4256.739,-36.133,-65.430,261.230,-38.086,-150.879,1694053248.000,14.861
4256.743,-29.297,-74.219,38.574,-46.875,-72.266,1694053248.000,14.865
4256.747,-51.758,-91.797,-282.715,-71.777,-43.945,1694053248.000,14.869
4256.751,-46.387,-80.078,-74.219,-38.086,-144.531,1694053248.000,14.873
4256.769,-53.223,-66.895,199.707,-31.738,-142.090,1694053248.000,14.891
4256.772,-39.551,-65.430,38.086,-37.109,-56.641,1694053248.000,14.895
4256.776,-42.969,-38.086,72.266,-50.781,-65.430,1694053248.000,14.899
4256.780,-51.270,-48.828,-36.621,-79.102,-175.293,1694053248.000,14.903
4256.784,-57.617,-65.430,-245.117,-65.430,-142.090,1694053248.000,14.907
4256.788,-30.273,-69.336,-153.320,-24.902,-18.555,1694053248.000,14.911
4256.792,-31.250,-52.246,42.480,-25.391,14.648,1694053248.000,14.915
4256.796,-45.898,-43.457,141.113,-56.152,-21.973,1694053248.000,14.918
4256.800,-31.738,-54.199,-156.250,-61.035,-51.270,1694053248.000,14.922
4256.804,-36.621,-59.082,-531.250,-54.688,144.531,1694053248.000,14.926
4256.808,-58.105,-53.223,-203.613,-44.922,186.035,1694053248.000,14.930
4256.812,-55.664,-57.617,301.758,-38.086,-68.848,1694053248.000,14.934
4256.813,-17.090,-50.781,174.805,-25.879,-36.621,1694053248.000,14.935
4256.817,-35.645,-44.434,-170.410,-23.438,-45.898,1694053248.000,14.939
4256.821,-41.016,-54.199,-245.605,-40.527,-130.859,1694053248.000,14.943
4256.825,-26.367,-52.246,104.004,-32.715,-179.199,1694053248.000,14.947
4256.829,-16.602,-57.129,37.109,-20.020,-23.926,1694053248.000,14.951
4256.832,-14.648,-47.852,-85.938,-10.254,100.586,1694053248.000,14.955
4256.836,-41.504,-53.711,-92.773,-36.621,10.742,1694053248.000,14.959
4256.840,-30.273,-52.246,-306.152,-26.367,-51.758,1694053248.000,14.962
4256.844,-33.691,-44.922,-289.551,-23.438,6.836,1694053248.000,14.966
4256.848,-48.828,-56.641,-430.664,-39.062,338.379,1694053248.000,14.970
4256.852,-41.016,-53.223,-27.832,-47.852,152.344,1694053248.000,14.974
4256.856,-40.527,-43.457,162.598,-56.152,-123.047,1694053248.000,14.978
4256.859,-45.410,-62.012,-250.977,-44.434,-98.633,1694053248.000,14.982
4256.863,-43.457,-64.941,-27.344,-42.969,-147.461,1694053248.000,14.986
4256.867,-32.715,-46.387,251.465,-39.551,-135.742,1694053248.000,14.990
4256.871,-41.992,-46.387,211.426,-46.875,-127.441,1694053248.000,14.994
4256.875,-37.109,-69.824,-32.227,-36.621,-102.539,1694053248.000,14.998
4256.879,-30.273,-60.547,-359.863,-33.203,17.578,1694053248.000,15.002
4256.883,-46.387,-37.598,-205.566,-47.852,37.109,1694053248.000,15.006
4256.887,-60.547,-51.270,145.020,-55.664,-97.656,1694053248.000,15.009
4256.891,-36.133,-51.758,-107.422,-43.457,71.289,1694053248.000,15.013
4256.895,-34.668,-48.340,-167.969,-35.156,95.703,1694053248.000,15.017
4256.899,-26.855,-50.293,-70.801,-41.016,-147.461,1694053248.000,15.021
4256.902,-27.832,-31.738,-278.809,-24.902,-100.098,1694053248.000,15.025
4256.903,-40.039,-46.387,-20.508,-30.273,6.348,1694053248.000,15.026
4256.907,-22.461,-60.059,219.727,-32.227,-59.082,1694053248.000,15.030
4256.911,-40.527,-43.457,210.449,-40.527,-147.949,1694053248.000,15.034
4256.915,-37.109,-63.965,-251.465,-56.152,-42.969,1694053248.000,15.038
4256.919,-14.160,-68.848,-457.520,-42.969,21.973,1694053248.000,15.042
4256.923,-25.879,-42.969,38.574,-28.320,-46.387,1694053248.000,15.046
4256.927,-51.758,-45.898,216.309,-42.969,19.043,1694053248.000,15.050
4256.931,-38.574,-66.406,-32.715,-44.922,125.977,1694053248.000,15.053
4256.935,-24.414,-69.336,-618.652,-36.133,305.664,1694053248.000,15.057
4256.938,-48.828,-55.664,-336.914,-56.152,101.562,1694053248.000,15.061
4256.942,-33.691,-53.711,221.191,-42.480,-194.824,1694053248.000,15.065
4256.946,-29.297,-51.758,207.031,-23.438,-146.973,1694053248.000,15.069
4256.950,-57.129,-64.453,198.730,-42.969,-140.137,1694053248.000,15.072
4256.953,-40.527,-65.430,-14.160,-40.527,-177.734,1694053248.000,15.076
4256.957,-36.621,-57.129,-249.023,-43.945,-128.906,1694053248.000,15.080
4256.961,-48.828,-55.176,-93.262,-41.504,-85.938,1694053248.000,15.084
4256.965,-51.758,-55.664,149.414,-37.109,-106.934,1694053248.000,15.088
4256.969,-27.832,-52.246,145.020,-32.715,-79.590,1694053248.000,15.092
4256.973,-50.781,-52.734,-132.324,-58.105,-73.242,1694053248.000,15.096
4256.977,-58.594,-53.223,-525.391,-60.547,65.918,1694053248.000,15.099
4256.981,-38.574,-46.387,-220.215,-51.758,107.422,1694053248.000,15.103
4256.985,-66.406,-51.270,275.879,-62.500,-124.023,1694053248.000,15.107
4256.989,-70.312,-47.852,180.664,-53.223,-118.164,1694053248.000,15.111
4256.992,-32.227,-49.316,-167.969,-53.223,-60.547,1694053248.000,15.115
4256.993,-44.434,-43.945,-265.137,-45.410,-89.355,1694053248.000,15.115
4256.997,-67.383,-53.223,106.445,-48.828,-131.836,1694053248.000,15.119
4257.001,-27.832,-59.082,125.488,-50.781,-97.656,1694053248.000,15.123
4257.004,-39.062,-54.199,128.906,-46.387,-55.176,1694053248.000,15.127
4257.008,-56.641,-63.477,-54.688,-61.523,-55.176,1694053248.000,15.131
4257.012,-49.316,-60.059,-367.188,-66.406,-30.762,1694053248.000,15.135
4257.016,-56.152,-60.547,-277.832,-55.176,21.973,1694053248.000,15.139
4257.020,-59.570,-65.430,-473.633,-41.016,329.590,1694053248.000,15.142
4257.024,-52.734,-74.707,-142.090,-40.039,288.086,1694053248.000,15.146
4257.028,-47.852,-80.078,149.902,-55.176,-108.887,1694053248.000,15.150
4257.032,-50.293,-71.289,-338.379,-56.152,-94.727,1694053248.000,15.154
4257.036,-64.453,-67.383,-134.766,-68.848,-65.918,1694053248.000,15.158
4257.040,-58.105,-70.801,266.113,-53.223,-179.688,1694053248.000,15.162
4257.043,-50.781,-68.359,230.469,-55.664,-160.156,1694053248.000,15.166
4257.047,-45.898,-69.336,-14.648,-62.988,-119.141,1694053248.000,15.170
4257.051,-38.574,-73.730,-292.480,-39.551,-129.395,1694053248.000,15.174
4257.055,-46.387,-76.660,-55.664,-33.691,-116.211,1694053248.000,15.178
4257.059,-51.758,-62.012,197.266,-43.945,-73.242,1694053248.000,15.182
4257.063,-56.152,-55.664,-119.629,-23.438,202.637,1694053248.000,15.186
4257.067,-57.129,-63.965,-278.809,-15.625,194.824,1694053248.000,15.189
4257.071,-58.105,-67.383,-227.539,-46.387,-109.375,1694053248.000,15.193
4257.075,-72.754,-64.941,-304.688,-51.270,-106.445,1694053248.000,15.197
4257.079,-68.848,-72.754,-29.297,-64.453,-46.875,1694053248.000,15.201
4257.082,-79.102,-58.594,226.562,-69.824,-38.086,1694053248.000,15.205
4257.083,-65.918,-51.758,206.543,-60.547,-88.379,1694053248.000,15.206
4257.087,-63.477,-56.641,-203.613,-69.824,-78.125,1694053248.000,15.210
4257.091,-57.617,-52.734,-260.254,-45.410,-69.336,1694053248.000,15.214
4257.095,-44.434,-68.359,163.574,-46.875,-79.590,1694053248.000,15.218
4257.099,-62.012,-54.199,231.934,-73.730,-33.691,1694053248.000,15.222
4257.103,-54.688,-62.012,-62.500,-51.270,114.258,1694053248.000,15.226
4257.107,-29.297,-70.801,-518.555,-32.227,289.062,1694053248.000,15.230
4257.111,-46.875,-59.082,-310.059,-56.641,107.422,1694053248.000,15.233
4257.114,-83.984,-62.012,122.070,-87.402,-103.516,1694053248.000,15.237
4257.118,-90.820,-55.664,125.000,-99.609,-37.598,1694053248.000,15.241
4257.122,-65.918,-53.223,86.914,-85.938,-19.531,1694053248.000,15.245
4257.126,-67.871,-52.246,-94.727,-91.309,-61.523,1694053248.000,15.249
4257.143,-96.680,-39.062,-223.633,-113.281,-128.906,1694053248.000,15.265
4257.147,-68.359,-39.062,-222.168,-85.938,-50.781,1694053248.000,15.269
4257.151,-81.055,-38.086,-55.664,-101.562,37.109,1694053248.000,15.273
4257.155,-98.633,-31.250,279.785,-104.980,-100.098,1694053248.000,15.277
4257.159,-77.637,-44.434,-57.617,-104.980,-147.949,1694053248.000,15.281
4257.163,-76.172,-25.391,-383.301,-109.375,10.254,1694053248.000,15.285
4257.166,-76.172,-8.789,-68.848,-104.980,65.430,1694053248.000,15.289
4257.170,-104.980,-4.883,227.539,-111.816,-102.539,1694053248.000,15.292
4257.174,-65.430,1.465,189.453,-93.262,-104.980,1694053248.000,15.296
4257.178,-33.203,-13.184,-225.586,-94.727,61.523,1694053248.000,15.300
4257.182,-50.781,-0.977,-309.570,-101.562,15.625,1694053248.000,15.304
4257.186,-38.574,0.488,95.703,-83.984,-122.559,1694053248.000,15.308
4257.189,-36.133,-3.418,150.879,-78.613,-67.383,1694053248.000,15.312
4257.193,-29.297,-9.766,92.773,-63.965,-10.742,1694053248.000,15.316
4257.197,-15.137,-10.254,-41.992,-61.035,-29.297,1694053248.000,15.320
4257.201,-7.812,-2.441,-216.309,-77.637,-106.934,1694053248.000,15.324
4257.205,-14.160,-1.953,-266.602,-70.312,-2.930,1694053248.000,15.328
4257.209,1.953,14.648,-337.891,-49.805,195.312,1694053248.000,15.332
4257.213,11.719,6.348,45.410,-48.340,124.512,1694053248.000,15.336
4257.216,13.184,-2.441,18.555,-55.176,-22.461,1694053248.000,15.339
4257.220,10.254,-19.531,-510.742,-46.387,-9.277,1694053248.000,15.343
4257.224,-5.859,-24.414,-378.906,-41.504,90.820,1694053248.000,15.347
4257.228,11.719,-6.836,166.504,-27.832,-77.148,1694053248.000,15.351
4257.232,12.207,-19.043,249.512,-21.973,-154.297,1694053248.000,15.355
4257.248,5.859,-21.484,-33.203,-31.250,-18.555,1694053248.000,15.371
4257.252,7.324,-19.531,-307.129,-42.969,-35.156,1694053248.000,15.375
4257.256,7.324,-28.320,-50.293,-34.668,-140.625,1694053248.000,15.379
4257.260,8.789,-22.461,170.898,-11.719,-117.676,1694053248.000,15.383
4257.264,19.043,-15.137,150.391,-17.090,-63.477,1694053248.000,15.387
4257.268,20.020,-16.602,70.801,-21.973,10.742,1694053248.000,15.391
4257.272,-29.297,-18.555,-286.621,-39.551,62.500,1694053248.000,15.395
4257.276,-34.180,-25.879,-224.121,-58.594,-40.527,1694053248.000,15.398
4257.280,-1.953,-43.945,-278.320,-39.551,101.562,1694053248.000,15.402
4257.284,6.348,-32.715,-192.383,-8.301,172.363,1694053248.000,15.406
4257.287,15.137,-29.297,236.816,-11.719,-121.094,1694053248.000,15.410
4257.291,-2.441,-31.250,-190.430,-44.434,-156.250,1694053248.000,15.414
4257.278,-10.254,-33.203,-315.918,-43.457,-130.859,1694053248.000,15.400
4257.282,-0.977,-32.227,135.254,-26.855,-131.836,1694053248.000,15.404
4257.286,-21.973,-25.879,256.348,-34.180,-143.555,1694053248.000,15.408
4257.290,-26.855,-19.043,81.543,-30.762,-94.727,1694053248.000,15.412
4257.294,-10.254,-21.973,-318.848,-37.109,-8.301,1694053248.000,15.416
4257.297,-11.230,-14.648,-386.719,-38.574,-57.129,1694053248.000,15.420
4257.301,-26.855,-13.672,-8.301,-28.809,-82.520,1694053248.000,15.424
4257.305,-43.945,-21.973,-27.832,-29.297,84.961,1694053248.000,15.427
4257.309,-9.277,-20.020,-88.867,-34.668,177.734,1694053248.000,15.431
4257.313,17.090,-25.879,-34.180,-31.738,-75.684,1694053248.000,15.435
4257.317,2.930,-33.203,-200.195,-13.672,-174.805,1694053248.000,15.439
4257.321,-12.695,-40.039,-264.160,1.953,-25.879,1694053248.000,15.443
4257.325,-22.949,-37.598,-410.645,-8.789,202.637,1694053248.000,15.447
4257.328,-25.879,-32.715,60.059,-27.344,31.250,1694053248.000,15.451
4257.332,-18.066,-34.180,71.289,-20.996,-137.695,1694053248.000,15.455
4257.336,-13.672,-36.621,-284.668,-36.133,-117.188,1694053248.000,15.459
4257.340,-31.250,-41.992,33.691,-31.250,-128.906,1694053248.000,15.463
4257.344,-24.414,-49.805,172.852,-9.766,-95.215,1694053248.000,15.467
4257.348,-39.062,-45.410,166.016,-12.695,-79.590,1694053248.000,15.471
4257.352,-34.668,-50.293,-269.531,-24.414,117.188,1694053248.000,15.474
4257.356,-23.926,-57.129,-470.215,-27.832,117.188,1694053248.000,15.478
4257.360,-27.832,-58.105,101.074,-21.973,-147.949,1694053248.000,15.482
4257.364,-27.832,-55.664,159.668,-20.996,-94.727,1694053248.000,15.486
4257.368,-37.598,-48.340,136.719,-27.832,8.789,1694053248.000,15.490
4257.369,-36.133,-49.805,122.070,-55.176,-83.496,1694053248.000,15.491
4257.373,-35.156,-57.129,-177.734,-42.480,-165.527,1694053248.000,15.495
4257.377,-47.852,-52.246,-119.141,-30.273,-124.023,1694053248.000,15.499
4257.381,-35.645,-43.457,122.070,-32.227,-87.891,1694053248.000,15.503
4257.385,-33.203,-37.598,202.637,-36.621,-93.750,1694053248.000,15.507
4257.388,-38.086,-35.645,-22.949,-32.715,-92.285,1694053248.000,15.511
4257.392,-34.180,-57.617,-449.707,-24.414,39.062,1694053248.000,15.515
4257.396,-45.898,-66.895,-592.773,-20.020,246.094,1694053248.000,15.518
4257.400,-37.598,-51.270,-111.328,-13.184,94.727,1694053248.000,15.522
4257.404,-23.926,-45.898,309.570,-14.648,-150.879,1694053248.000,15.526
4257.408,-40.527,-55.176,21.973,-29.785,-125.977,1694053248.000,15.530
4257.412,-48.828,-67.383,-297.852,-64.453,-147.949,1694053248.000,15.534
4257.416,-56.641,-62.500,-50.781,-56.641,-126.953,1694053248.000,15.538
4257.420,-38.086,-57.617,194.824,-28.320,-38.086,1694053248.000,15.542
4257.424,-16.113,-47.852,101.074,-10.254,-13.672,1694053248.000,15.546
4257.428,-27.832,-39.551,133.789,-26.367,-60.059,1694053248.000,15.550
4257.432,-11.230,-45.410,-107.422,-40.527,-113.770,1694053248.000,15.554
4257.435,-27.832,-54.688,-250.488,-26.855,-142.090,1694053248.000,15.558
4257.439,-46.875,-66.895,-261.230,-13.184,127.930,1694053248.000,15.562
4257.443,-34.668,-64.941,-143.555,-21.973,266.602,1694053248.000,15.565
4257.447,-43.945,-64.453,268.066,-24.902,-62.500,1694053248.000,15.569
4257.451,-62.988,-72.754,-127.441,-42.969,-107.422,1694053248.000,15.573
4257.455,-40.527,-77.637,-242.188,-35.645,-98.633,1694053248.000,15.577
4257.459,-21.484,-79.590,211.426,-13.672,-122.559,1694053248.000,15.581
4257.458,-46.875,-73.730,276.367,-24.902,-120.117,1694053248.000,15.580
4257.462,-42.480,-76.660,121.094,-29.785,-83.008,1694053248.000,15.584
4257.466,-19.043,-76.660,-213.379,-31.738,-6.348,1694053248.000,15.588
4257.470,-44.434,-59.082,-270.508,-33.203,-34.180,1694053248.000,15.592
4257.474,-35.645,-59.082,54.688,-31.738,-10.742,1694053248.000,15.596
4257.478,-51.758,-52.246,86.914,-35.645,113.770,1694053248.000,15.600
4257.481,-37.598,-60.547,-348.633,-25.391,363.281,1694053248.000,15.604
4257.485,-23.926,-73.242,-452.148,-38.086,294.434,1694053248.000,15.607
4257.489,-54.199,-57.617,-167.480,-47.363,-102.539,1694053248.000,15.611
4257.493,-49.805,-57.129,-56.641,-38.086,-103.516,1694053248.000,15.615
4257.497,-41.016,-50.293,62.500,-26.367,-66.895,1694053248.000,15.619
4257.501,-33.691,-44.922,287.598,-29.297,-183.594,1694053248.000,15.623
4257.519,-9.766,-57.129,11.230,-31.738,-162.109,1694053248.000,15.641
4257.523,-14.648,-39.551,-301.758,-27.832,-119.141,1694053248.000,15.645
4257.527,-48.828,-38.574,42.480,-16.602,-109.863,1694053248.000,15.649
4257.531,-40.527,-48.340,272.949,-11.719,-124.023,1694053248.000,15.653
4257.534,-27.344,-43.457,211.914,-17.090,-91.797,1694053248.000,15.657
4257.538,-30.273,-53.223,-142.578,-21.484,12.695,1694053248.000,15.661
4257.542,-19.531,-54.688,-398.926,-36.133,-1.953,1694053248.000,15.665
4257.546,-14.648,-41.016,-124.512,-16.113,-41.992,1694053248.000,15.668
4257.550,-13.672,-37.109,184.082,-9.277,-18.555,1694053248.000,15.672
4257.554,-18.066,-39.551,-81.543,-17.578,151.367,1694053248.000,15.676
4257.558,-20.020,-50.293,-367.188,-15.625,141.113,1694053248.000,15.680
4257.562,-24.414,-60.059,-243.164,-33.691,-130.371,1694053248.000,15.684
4257.563,-25.879,-54.199,-57.617,-28.809,-106.445,1694053248.000,15.685
4257.567,-38.086,-46.387,145.508,-25.391,-68.359,1694053248.000,15.689
4257.571,-41.504,-47.852,234.375,-24.902,-111.816,1694053248.000,15.693
4257.575,-29.785,-46.387,149.902,-24.902,-133.789,1694053248.000,15.697
4257.579,-48.340,-60.547,-325.684,-37.109,-73.242,1694053248.000,15.701
4257.582,-49.316,-62.500,-347.168,-38.086,56.641,1694053248.000,15.705
4257.586,-30.273,-50.781,83.984,-32.227,52.246,1694053248.000,15.709
4257.590,-42.480,-64.453,231.445,-41.504,36.621,1694053248.000,15.712
4257.594,-78.125,-50.293,-90.332,-67.383,78.125,1694053248.000,15.716
4257.598,-99.609,-42.480,-706.543,-83.984,315.430,1694053248.000,15.720
4257.602,-78.613,-52.734,-306.641,-92.285,154.297,1694053248.000,15.724
4257.606,-104.492,-43.457,236.816,-104.004,-171.875,1694053248.000,15.728
4257.611,-140.137,-50.781,212.891,-126.953,-124.023,1694053248.000,15.733
4257.615,-148.438,-55.664,167.480,-153.809,-138.184,1694053248.000,15.737
4257.619,-156.738,-56.152,-145.508,-164.062,-190.918,1694053248.000,15.741
4257.623,-159.668,-44.922,-165.039,-169.434,-182.129,1694053248.000,15.745
4257.627,-166.016,-50.293,125.977,-172.852,-106.445,1694053248.000,15.749
4257.631,-167.969,-44.922,148.438,-158.691,-13.184,1694053248.000,15.753
4257.634,-155.762,-41.504,79.590,-151.855,-38.086,1694053248.000,15.757
4257.638,-140.137,-56.152,-180.664,-153.809,-158.691,1694053248.000,15.760
4257.642,-114.258,-41.992,-505.859,-139.160,27.832,1694053248.000,15.764
4257.646,-119.629,-35.645,-136.719,-113.281,134.277,1694053248.000,15.768
4257.650,-102.539,-41.504,308.594,-93.262,-91.309,1694053248.000,15.772
4257.654,-92.285,-43.945,128.418,-85.938,-86.426,1694053248.000,15.776
4257.653,-87.402,-53.711,-270.020,-83.984,-22.461,1694053248.000,15.775
4257.657,-85.938,-55.176,-265.625,-80.566,-98.145,1694053248.000,15.779
4257.661,-91.309,-50.781,165.039,-63.965,-123.535,1694053248.000,15.783
4257.665,-61.035,-47.852,104.004,-62.500,-27.832,1694053248.000,15.787
4257.669,-52.734,-43.457,-140.137,-56.152,71.289,1694053248.000,15.791
4257.672,-81.055,-56.641,-224.121,-53.223,-41.016,1694053248.000,15.795
4257.676,-71.777,-59.082,-344.238,-46.387,-69.824,1694053248.000,15.799
4257.680,-46.387,-37.598,-191.406,-36.133,62.988,1694053248.000,15.802
4257.684,-43.457,-43.457,-395.996,-33.203,258.301,1694053248.000,15.806
4257.688,-65.918,-34.180,-182.617,-29.785,174.805,1694053248.000,15.810
4257.692,-48.340,-35.156,108.887,-24.414,-90.820,1694053248.000,15.814
4257.696,-36.621,-42.969,-234.375,-32.715,-81.543,1694053248.000,15.818
4257.700,-35.645,-28.809,32.227,-36.133,-75.684,1694053248.000,15.822
4257.703,-45.410,-41.992,277.344,-33.203,-116.699,1694053248.000,15.826
4257.707,-46.387,-51.270,175.781,-47.363,-58.105,1694053248.000,15.830
4257.711,-33.691,-42.969,-82.520,-55.664,55.664,1694053248.000,15.834
4257.715,-66.406,-32.227,-280.762,-57.129,0.977,1694053248.000,15.838
4257.719,-45.898,-43.457,-136.230,-44.434,-90.820,1694053248.000,15.842
4257.723,-28.320,-59.570,134.277,-29.785,-51.758,1694053248.000,15.846
4257.727,-20.508,-35.156,-102.539,-26.367,153.320,1694053248.000,15.849
4257.731,-5.371,-35.645,-306.641,-28.809,105.957,1694053248.000,15.853
4257.735,-39.551,-52.734,-189.941,-47.852,-166.016,1694053248.000,15.857
4257.739,-41.992,-50.293,-87.402,-25.391,-158.203,1694053248.000,15.861
4257.743,-15.625,-32.715,134.277,-5.371,-112.305,1694053248.000,15.865
4257.743,-41.504,-41.016,233.887,-25.391,-146.484,1694053248.000,15.865
4257.747,-57.129,-45.898,163.574,-20.508,-138.672,1694053248.000,15.869
4257.751,-43.457,-26.367,-288.574,-26.855,-113.281,1694053248.000,15.873
4257.755,-36.621,-25.879,-198.730,-27.344,-87.402,1694053248.000,15.877
4257.758,-28.809,-29.297,161.133,-28.809,-62.500,1694053248.000,15.881
4257.762,-38.086,-16.113,151.855,-54.199,-24.902,1694053248.000,15.885
4257.766,-34.668,-15.625,-68.359,-54.199,101.562,1694053248.000,15.889
4257.770,-52.246,-9.766,-653.320,-56.641,395.508,1694053248.000,15.892
4257.774,-54.199,0.977,-412.598,-51.758,276.367,1694053248.000,15.896
4257.778,-31.250,-9.766,181.152,-40.527,-71.777,1694053248.000,15.900
4257.782,-56.152,-15.137,234.863,-47.363,-80.078,1694053248.000,15.904
4257.786,-62.988,-3.906,182.129,-62.988,-97.168,1694053248.000,15.908
4257.790,-36.133,2.441,-50.293,-67.383,-153.320,1694053248.000,15.912
4257.794,-40.527,-6.836,-136.230,-40.039,-148.438,1694053248.000,15.916
4257.797,-40.039,-12.695,115.234,-29.297,-119.141,1694053248.000,15.920
4257.801,-32.715,-8.789,250.000,-37.598,-110.840,1694053248.000,15.924
4257.805,-62.012,-2.441,165.527,-54.199,-128.418,1694053248.000,15.928
4257.809,-57.129,0.000,-195.312,-49.316,-60.547,1694053248.000,15.932
4257.813,-41.992,-13.672,-517.090,-29.785,174.316,1694053248.000,15.936
4257.817,-21.484,-12.695,-183.105,-11.719,110.352,1694053248.000,15.939
4257.821,-23.438,-27.344,243.164,0.977,-137.695,1694053248.000,15.943
4257.825,-56.152,-26.367,128.906,-20.996,-75.195,1694053248.000,15.947
4257.829,-47.363,22.461,-205.566,-31.250,-37.109,1694053248.000,15.951
4257.833,-28.320,3.906,-216.797,-15.137,-112.793,1694053248.000,15.955
4257.833,-15.625,-12.207,153.809,0.000,-159.180,1694053248.000,15.956
4257.837,-12.695,5.859,157.227,-9.277,-97.656,1694053248.000,15.960
4257.841,-16.602,-0.977,164.551,-13.184,-62.500,1694053248.000,15.964
4257.845,-38.574,-5.859,17.578,-30.762,-139.648,1694053248.000,15.968
4257.849,-53.223,-5.859,-258.789,-48.340,-122.070,1694053248.000,15.972
4257.853,-14.648,0.488,-199.219,-13.672,78.613,1694053248.000,15.976
4257.857,-42.480,0.000,-259.766,-20.996,278.809,1694053248.000,15.980
4257.860,-50.781,-2.441,74.707,-28.809,81.543,1694053248.000,15.983
4257.864,-1.465,-11.719,172.852,5.859,-173.340,1694053248.000,15.987
4257.868,-27.832,-11.230,-314.453,-20.508,-52.734,1694053248.000,15.991
4257.872,-19.531,-3.906,-152.832,-17.578,-0.488,1694053248.000,15.995
4257.876,-7.324,-12.207,245.605,-4.395,-88.867,1694053248.000,15.999
4257.881,-21.973,-2.441,238.770,-24.414,-128.906,1694053248.000,16.004
4257.885,-39.062,-0.488,-46.875,-23.438,-55.664,1694053248.000,16.008
4257.889,-48.828,-8.789,-291.504,-27.832,-32.227,1694053248.000,16.012
4257.893,-27.344,-10.254,45.410,-33.691,-133.789,1694053248.000,16.016
4257.897,-20.996,-12.207,219.727,-22.949,-127.930,1694053248.000,16.020
4257.901,-28.320,-26.367,153.320,-27.344,54.688,1694053248.000,16.024
4257.905,-55.176,-10.254,23.438,-40.527,87.402,1694053248.000,16.028
4257.909,-54.688,-13.672,-229.492,-46.387,-91.797,1694053248.000,16.031
4257.913,-46.875,-44.922,-72.754,-39.062,-144.043,1694053248.000,16.035
4257.916,-37.598,-37.109,-17.578,-13.672,76.172,1694053248.000,16.039
4257.920,-28.809,-31.250,86.426,-10.254,54.199,1694053248.000,16.043
4257.924,-33.203,-36.133,218.262,-19.531,-140.625,1694053248.000,16.047
4257.939,-26.367,-31.250,-202.637,-25.879,-62.500,1694053248.000,16.061
4257.943,-36.133,-28.320,-221.680,-13.672,-13.184,1694053248.000,16.065
4257.947,-29.297,-25.391,173.340,-3.418,-10.254,1694053248.000,16.069
4257.951,-35.156,-33.691,289.551,-27.344,-79.102,1694053248.000,16.073
4257.955,-23.926,-8.789,-5.859,-22.461,-10.742,1694053248.000,16.077
4257.958,-46.875,-0.488,-532.227,-17.578,289.062,1694053248.000,16.081
4257.962,-49.316,-21.973,-309.082,-11.230,147.949,1694053248.000,16.085
4257.966,-15.625,-16.113,150.391,2.441,-95.215,1694053248.000,16.088
4257.970,-26.367,-16.602,-4.395,-6.348,11.719,1694053248.000,16.092
4257.974,-27.344,-17.090,-92.285,-11.230,76.660,1694053248.000,16.096
4257.978,-26.367,-19.043,-17.090,-20.996,-88.379,1694053248.000,16.100
4257.982,-19.043,-24.902,-133.789,-19.531,-152.832,1694053248.000,16.104
4257.985,-27.832,-21.484,-46.875,-19.531,-54.688,1694053248.000,16.107
4257.989,-62.988,-25.879,96.680,-26.855,-38.574,1694053248.000,16.111
4257.993,-36.133,-29.785,264.648,-19.531,-114.258,1694053248.000,16.115
4257.997,-29.785,-13.672,-47.363,-23.438,-129.395,1694053248.000,16.119
4258.000,-60.059,0.488,-339.844,-39.062,-79.102,1694053248.000,16.123
4258.004,-58.594,-14.648,-73.242,-20.508,-78.613,1694053248.000,16.127
4258.008,-34.668,-31.250,167.480,-3.418,-60.547,1694053248.000,16.131
4258.012,-27.832,-16.113,190.918,-32.715,-3.906,1694053248.000,16.134
4258.016,-34.668,-17.090,-337.891,-27.832,124.023,1694053248.000,16.138
4258.020,-40.527,-15.137,-514.160,-20.508,162.109,1694053248.000,16.142
4258.024,-67.383,-39.551,153.320,-38.086,-100.586,1694053248.000,16.146
4258.028,-56.641,-53.711,218.262,-27.832,-117.188,1694053248.000,16.150
4258.028,-22.949,-37.598,170.898,-15.137,-28.320,1694053248.000,16.150
4258.032,-42.969,-41.016,75.684,-35.156,-66.895,1694053248.000,16.154
4258.036,-36.621,-59.570,-187.500,-32.715,-138.672,1694053248.000,16.158
4258.040,-25.879,-44.434,-35.645,-21.973,-112.793,1694053248.000,16.162
4258.043,-53.711,-48.340,104.004,-25.879,-78.613,1694053248.000,16.166
4258.047,-46.387,-66.895,143.555,-4.395,-37.109,1694053248.000,16.170
4258.051,-21.484,-63.477,-99.121,-9.277,-49.316,1694053248.000,16.174
4258.055,-52.246,-60.547,-451.660,-27.344,-20.020,1694053248.000,16.177
4258.059,-53.711,-56.152,-551.758,-4.883,264.160,1694053248.000,16.181
4258.063,-11.230,-38.574,-156.738,-13.184,206.543,1694053248.000,16.185
4258.067,-44.434,-27.832,291.504,-39.551,-108.887,1694053248.000,16.189
4258.071,-44.922,-52.246,-48.828,-30.273,-95.703,1694053248.000,16.193
4258.075,-41.016,-50.293,-334.473,-33.691,-99.609,1694053248.000,16.197
4258.078,-38.574,-37.598,15.625,-21.973,-179.688,1694053248.000,16.201
4258.082,-31.738,-38.574,225.098,-18.066,-135.254,1694053248.000,16.205
4258.086,-57.129,-54.199,217.773,-37.109,-72.266,1694053248.000,16.209
4258.090,-71.289,-67.871,106.934,-34.668,-66.406,1694053248.000,16.213
4258.094,-44.922,-42.480,-296.875,-40.527,-109.375,1694053248.000,16.217
4258.098,-19.043,-44.434,-207.031,-44.434,-107.422,1694053248.000,16.221
4258.102,-37.109,-56.152,-221.680,-24.414,96.680,1694053248.000,16.224
4258.106,-64.453,-51.270,-116.211,-48.340,121.582,1694053248.000,16.228
4258.110,-44.922,-59.570,204.102,-56.152,-108.398,1694053248.000,16.232
4258.114,-38.086,-51.758,-255.371,-47.852,-73.730,1694053248.000,16.236
4258.117,-48.828,-47.363,-277.344,-54.199,23.438,1694053248.000,16.240
4258.118,-55.664,-43.457,163.086,-43.457,-26.855,1694053248.000,16.240
4258.122,-46.875,-37.109,273.926,-35.645,-100.098,1694053248.000,16.244
4258.126,-29.785,-49.805,69.824,-33.691,-59.082,1694053248.000,16.248
4258.130,-41.504,-44.434,-279.297,-47.363,-27.832,1694053248.000,16.252
4258.134,-45.410,-44.434,-292.480,-24.414,-42.480,1694053248.000,16.256
4258.137,-51.270,-38.574,21.484,-21.484,-3.906,1694053248.000,16.260
4258.141,-46.875,-27.832,56.641,-36.621,78.613,1694053248.000,16.264
4258.145,-15.137,-37.109,-422.852,-1.953,293.945,1694053248.000,16.267
4258.149,-36.621,-49.805,-479.492,-8.789,100.098,1694053248.000,16.271
4258.153,-63.965,-54.199,-148.926,-33.203,-162.109,1694053248.000,16.275
4258.157,-40.527,-46.875,91.797,-27.832,-71.777,1694053248.000,16.279
4258.161,-46.387,-53.223,202.637,-26.855,-60.547,1694053248.000,16.283
4258.166,-43.945,-50.293,219.727,-27.344,-116.211,1694053248.000,16.288
4258.170,-40.527,-44.922,-167.969,-29.785,-127.930,1694053248.000,16.292
4258.174,-48.340,-55.176,-388.672,-34.180,-40.039,1694053248.000,16.296
4258.178,-46.875,-49.805,85.938,-30.762,-62.500,1694053248.000,16.300
4258.182,-35.156,-55.664,221.680,-25.391,-139.160,1694053248.000,16.304
4258.185,-53.711,-72.754,134.277,-31.738,-45.898,1694053248.000,16.308
4258.189,-69.824,-76.660,-325.684,-42.480,181.641,1694053248.000,16.312
4258.193,-67.383,-56.152,-492.676,-41.992,122.070,1694053248.000,16.315
4258.197,-53.223,-50.293,111.816,-46.387,-179.199,1694053248.000,16.319
4258.201,-53.711,-61.035,188.965,-30.762,-153.320,1694053248.000,16.323
4258.205,-56.152,-51.270,170.898,-24.902,-47.852,1694053248.000,16.327
4258.209,-47.852,-40.527,85.449,-39.551,-70.312,1694053248.000,16.331
4258.208,-69.824,-48.340,-191.895,-55.176,-156.250,1694053248.000,16.330
4258.212,-62.988,-60.059,-71.289,-49.805,-105.469,1694053248.000,16.334
4258.216,-50.293,-43.457,136.230,-33.691,-42.480,1694053248.000,16.338
4258.220,-54.688,-34.668,173.828,-41.016,-43.457,1694053248.000,16.342
4258.224,-68.359,-48.828,-77.637,-36.133,-31.250,1694053248.000,16.346
4258.227,-64.453,-51.270,-449.707,-32.227,46.387,1694053248.000,16.350
4258.231,-41.992,-54.199,-560.547,-37.109,356.934,1694053248.000,16.354
4258.235,-49.316,-40.039,-173.828,-55.664,263.184,1694053248.000,16.357
4258.239,-51.758,-37.109,281.738,-58.105,-123.047,1694053248.000,16.361
4258.243,-35.645,-44.434,-89.355,-29.297,-40.527,1694053248.000,16.365
4258.247,-40.039,-41.992,-433.594,-43.945,14.160,1694053248.000,16.369
4258.251,-43.945,-41.992,-0.488,-40.527,-149.414,1694053248.000,16.373
4258.268,-48.340,-39.062,205.566,-20.508,-164.062,1694053248.000,16.391
4258.272,-72.754,-39.551,188.477,-31.738,-94.727,1694053248.000,16.395
4258.276,-62.988,-47.852,145.508,-55.664,-82.520,1694053248.000,16.399
4258.280,-44.434,-50.293,-182.617,-46.387,-147.461,1694053248.000,16.403
4258.284,-69.336,-54.199,-91.797,-28.320,-131.348,1694053248.000,16.407
4258.288,-33.691,-57.617,69.336,-9.766,16.602,1694053248.000,16.411
4258.292,-17.578,-58.594,61.035,-28.809,-8.789,1694053248.000,16.415
4258.296,-57.617,-57.617,80.566,-51.270,-32.227,1694053248.000,16.418
4258.300,-57.617,-52.734,-197.266,-35.645,-68.848,1694053248.000,16.422
4258.303,-35.156,-49.316,-473.145,-30.762,83.984,1694053248.000,16.426
4258.307,-35.156,-52.734,-176.270,-19.043,150.879,1694053248.000,16.430
4258.311,-31.738,-48.828,289.062,-27.344,-131.348,1694053248.000,16.434
4258.313,-22.461,-36.621,110.352,-45.898,-118.164,1694053248.000,16.435
4258.317,-35.645,-50.293,-282.227,-46.875,-78.125,1694053248.000,16.439
4258.321,-46.875,-62.012,-210.449,-42.480,-148.926,1694053248.000,16.443
4258.325,-51.270,-50.293,166.992,-22.949,-178.711,1694053248.000,16.447
4258.328,-42.969,-49.805,75.684,-16.113,5.371,1694053248.000,16.451
4258.332,-37.109,-47.363,-169.922,-29.297,87.891,1694053248.000,16.455
4258.336,-19.043,-51.270,-297.363,-30.273,-24.414,1694053248.000,16.459
4258.340,-35.645,-46.875,-306.152,-35.645,-66.406,1694053248.000,16.462
4258.344,-45.898,-51.758,-171.875,-26.855,38.086,1694053248.000,16.466
4258.348,-26.367,-49.316,-311.523,-19.531,352.051,1694053248.000,16.470
4258.352,-42.480,-33.203,53.223,-27.832,152.344,1694053248.000,16.474
4258.356,-55.664,-43.457,50.781,-38.574,-155.273,1694053248.000,16.478
4258.360,-29.297,-44.434,-300.781,-32.715,-109.375,1694053248.000,16.482
4258.363,-30.762,-41.016,45.898,-20.508,-90.820,1694053248.000,16.486
4258.367,-33.691,-37.109,255.859,-8.301,-118.652,1694053248.000,16.490
4258.371,-17.578,-35.156,200.684,11.230,-119.141,1694053248.000,16.494
4258.375,-12.207,-46.875,-124.023,-7.324,-49.316,1694053248.000,16.498
4258.379,-30.762,-51.758,-392.090,-34.668,-31.250,1694053248.000,16.502
4258.383,-33.691,-29.785,-203.613,-22.461,-83.984,1694053248.000,16.506
4258.387,-56.152,-27.344,111.816,-12.695,-117.188,1694053248.000,16.509
4258.391,-29.785,-47.363,-109.863,10.742,66.406,1694053248.000,16.513
4258.395,-20.508,-34.180,-377.441,4.395,114.746,1694053248.000,16.517
4258.399,-57.617,-33.203,-199.707,-12.695,-131.348,1694053248.000,16.521
4258.403,-47.852,-37.598,-3.418,-9.766,-83.496,1694053248.000,16.525
4258.403,-48.340,-51.270,130.859,-15.137,43.945,1694053248.000,16.526
4258.407,-69.824,-56.152,213.379,-16.113,-36.621,1694053248.000,16.530
4258.411,-48.828,-57.617,145.508,-11.719,-136.719,1694053248.000,16.534
4258.415,-50.781,-61.035,-334.473,-28.320,-75.684,1694053248.000,16.538
4258.419,-69.824,-51.758,-378.418,-41.504,18.555,1694053248.000,16.542
4258.423,-48.828,-54.199,87.402,-36.133,-12.207,1694053248.000,16.546
4258.427,-44.434,-59.570,206.055,-52.246,-0.488,1694053248.000,16.550
4258.431,-35.645,-53.223,-114.258,-56.152,78.125,1694053248.000,16.553
4258.435,-52.246,-61.035,-699.219,-47.363,248.535,1694053248.000,16.557
4258.438,-62.012,-51.758,-283.691,-55.664,93.262,1694053248.000,16.561
4258.442,-45.410,-42.969,249.512,-55.664,-159.180,1694053248.000,16.565
4258.446,-53.223,-56.641,190.430,-50.781,-110.840,1694053248.000,16.569
4258.450,-48.828,-41.504,124.023,-62.012,-119.141,1694053248.000,16.572
4258.453,-36.621,-41.016,-160.645,-54.688,-192.383,1694053248.000,16.576
4258.457,-39.551,-51.758,-116.211,-52.246,-133.301,1694053248.000,16.580
4258.461,-48.340,-45.410,108.398,-50.781,-20.020,1694053248.000,16.584
4258.465,-33.203,-43.945,171.387,-34.180,-59.570,1694053248.000,16.588
4258.469,-13.672,-50.781,91.309,-24.902,-72.266,1694053248.000,16.592
4258.473,-37.598,-33.203,-252.441,-55.664,-41.992,1694053248.000,16.596
4258.477,-51.270,-26.367,-494.141,-68.359,139.648,1694053248.000,16.599
4258.481,-33.691,-36.621,-172.363,-32.227,189.453,1694053248.000,16.603
4258.485,-3.906,-24.902,288.086,-11.230,-82.520,1694053248.000,16.607
4258.489,-16.602,-22.461,128.906,-23.926,-124.512,1694053248.000,16.611
4258.493,-43.457,-30.762,-270.508,-39.551,-95.703,1694053248.000,16.615
4258.493,-47.363,-38.086,-231.934,-33.691,-149.902,1694053248.000,16.615
4258.497,-36.621,-25.879,158.203,-21.973,-141.602,1694053248.000,16.619
4258.501,-23.926,-22.949,160.156,-28.809,-59.082,1694053248.000,16.623
4258.505,-21.484,-33.691,82.031,-43.945,-42.969,1694053248.000,16.627
4258.509,-26.855,-30.273,-191.406,-26.855,3.906,1694053248.000,16.631
4258.512,-41.016,-24.902,-352.051,-40.527,12.695,1694053248.000,16.635
4258.516,-38.086,-25.879,-195.801,-42.969,62.500,1694053248.000,16.639
4258.520,-18.555,-14.648,-438.477,-13.184,325.195,1694053248.000,16.642
4258.524,-47.363,-6.348,-271.484,-18.066,223.145,1694053248.000,16.646
4258.528,-62.500,-21.973,-81.543,-40.527,-83.984,1694053248.000,16.650
4258.532,-58.105,-20.508,-301.758,-46.875,-98.145,1694053248.000,16.654
4258.536,-56.152,-0.977,30.273,-46.875,-84.961,1694053248.000,16.658
4258.555,-37.598,-2.930,233.398,-40.527,-132.812,1694053248.000,16.677
4258.559,-32.715,-7.324,200.684,-23.438,-124.512,1694053248.000,16.681
4258.562,-50.781,1.953,-94.727,-53.711,-95.703,1694053248.000,16.685
4258.566,-37.598,1.465,-332.031,-46.387,-76.172,1694053248.000,16.689
4258.570,-39.062,-7.324,-37.598,-44.434,-95.703,1694053248.000,16.693
4258.574,-43.457,-18.066,162.109,-57.129,-106.934,1694053248.000,16.697
4258.578,-25.391,-17.578,-174.316,-18.066,101.562,1694053248.000,16.701
4258.582,-37.109,-5.371,-430.176,-33.203,91.797,1694053248.000,16.704
4258.586,-32.227,0.488,-329.102,-50.293,-124.512,1694053248.000,16.708
4258.590,-31.250,9.277,-228.516,-29.785,-83.496,1694053248.000,16.712
4258.594,-38.574,-8.789,-117.676,-11.230,-36.621,1694053248.000,16.716
4258.598,-24.902,-31.738,101.562,-12.207,-87.891,1694053248.000,16.720
4258.583,-31.738,-31.250,107.910,-31.738,-165.527,1694053248.000,16.706
4258.587,-26.855,-49.316,-352.051,-25.879,-144.043,1694053248.000,16.710
4258.591,-35.156,-46.387,-232.422,-25.391,-104.492,1694053248.000,16.714
4258.595,-45.898,-38.574,178.223,-24.902,-87.891,1694053248.000,16.718
4258.599,-8.789,-46.875,192.383,-24.902,-94.238,1694053248.000,16.722
4258.603,-20.996,-35.156,-207.520,-20.996,63.965,1694053248.000,16.726
4258.607,-29.785,-42.480,-561.523,-16.113,158.691,1694053248.000,16.730
4258.611,-32.227,-45.898,-269.043,-17.090,-2.930,1694053248.000,16.733
4258.614,-41.504,-39.551,140.137,-6.348,-123.535,1694053248.000,16.737
4258.618,-42.480,-43.457,77.637,0.488,-15.625,1694053248.000,16.741
4258.622,-32.227,-48.828,-471.191,0.977,278.320,1694053248.000,16.745
4258.626,-32.715,-42.480,-496.582,-30.273,157.715,1694053248.000,16.749
4258.643,-52.246,-40.039,-75.195,-39.551,-110.840,1694053248.000,16.766
4258.647,-40.527,-41.016,-12.695,-8.301,-41.016,1694053248.000,16.770
4258.651,-29.297,-45.898,66.895,6.348,-20.020,1694053248.000,16.774
4258.655,-37.109,-41.504,184.082,-28.320,-155.762,1694053248.000,16.778
4258.659,-36.133,-28.320,-184.570,-50.293,-157.715,1694053248.000,16.782
4258.663,-35.156,-42.480,-378.906,-20.020,-18.555,1694053248.000,16.786
4258.667,-47.363,-47.363,-67.871,-10.742,52.246,1694053248.000,16.790
4258.670,-37.598,-41.016,214.844,-14.648,-66.406,1694053248.000,16.793
4258.674,-35.156,-49.316,116.699,-14.160,-147.461,1694053248.000,16.797
4258.678,-52.734,-41.992,-360.840,-57.129,11.719,1694053248.000,16.801
4258.682,-63.477,-36.621,-315.430,-58.105,20.996,1694053248.000,16.805
4258.686,-42.480,-50.293,139.648,-20.020,-143.066,1694053248.000,16.809
4258.689,-29.297,-43.457,151.855,-18.066,-110.840,1694053248.000,16.812
4258.693,-32.227,-30.762,54.688,-17.578,-52.246,1694053248.000,16.816
4258.697,-46.875,-42.969,-196.289,-32.715,-44.434,1694053248.000,16.820
4258.701,-49.316,-55.176,-255.859,-46.387,-130.371,1694053248.000,16.824
4258.705,-58.594,-42.480,-110.840,-47.363,-19.043,1694053248.000,16.828
4258.709,-25.879,-46.875,-258.789,-20.996,262.207,1694053248.000,16.832
4258.713,-21.973,-44.434,-59.570,0.488,127.441,1694053248.000,16.836
4258.716,-55.176,-40.039,-125.977,-31.250,-53.223,1694053248.000,16.839
4258.720,-31.250,-33.691,-490.234,-42.969,-22.949,1694053248.000,16.843
4258.724,-35.156,-18.555,-353.027,-24.414,70.801,1694053248.000,16.847
4258.728,-34.668,-20.996,130.371,-25.391,-71.289,1694053248.000,16.851
4258.732,-32.715,-30.273,252.930,-33.203,-153.809,1694053248.000,16.855
4258.734,-43.457,-25.879,-70.312,-30.273,-108.887,1694053248.000,16.857
4258.738,-48.340,-23.926,-292.480,-30.273,-91.797,1694053248.000,16.861
4258.742,-51.758,-29.785,36.621,-31.738,-88.379,1694053248.000,16.865
4258.746,-38.574,-29.297,203.125,-38.086,-77.148,1694053248.000,16.869
4258.750,-49.805,-25.879,123.535,-53.223,-74.707,1694053248.000,16.873
4258.754,-66.406,-21.973,-121.094,-50.293,-78.125,1694053248.000,16.877
4258.758,-50.781,-35.156,-415.527,-46.387,-106.445,1694053248.000,16.881
4258.762,-37.598,-30.762,-177.734,-46.875,-134.277,1694053248.000,16.884
4258.766,-38.574,-24.902,-273.926,-30.273,58.594,1694053248.000,16.888
4258.770,-33.203,-37.598,-267.578,-35.156,133.789,1694053248.000,16.892
4258.774,-40.527,-43.457,122.070,-46.387,-123.535,1694053248.000,16.896
4258.777,-40.527,-41.992,-254.395,-51.758,-147.949,1694053248.000,16.900
4258.778,-44.434,-37.109,-205.078,-51.758,-110.352,1694053248.000,16.900
4258.782,-67.871,-39.551,192.383,-49.316,-125.000,1694053248.000,16.904
4258.786,-52.734,-36.133,236.328,-37.598,-138.672,1694053248.000,16.908
4258.789,-40.039,-30.273,-0.488,-43.945,-92.285,1694053248.000,16.912
4258.793,-46.875,-33.203,-395.020,-53.223,-40.039,1694053248.000,16.916
4258.797,-37.109,-33.203,-282.227,-31.738,-50.293,1694053248.000,16.920
4258.801,-39.062,-37.109,33.203,-29.785,-1.465,1694053248.000,16.924
4258.805,-24.902,-83.984,11.230,-18.555,105.469,1694053248.000,16.927
4258.809,-9.277,-103.027,-470.215,-4.395,349.121,1694053248.000,16.931
4258.813,-15.625,-91.309,-535.156,-31.738,242.676,1694053248.000,16.935
4258.817,-28.320,-83.496,-140.137,-36.133,-118.164,1694053248.000,16.939
4258.821,-28.320,-88.867,13.672,-8.789,-166.504,1694053248.000,16.943
4258.825,-21.484,-98.145,120.605,-9.277,-138.672,1694053248.000,16.947
4258.828,-13.184,-94.238,209.473,-20.996,-159.180,1694053248.000,16.951
4258.832,-22.461,-92.773,-140.137,-48.828,-153.320,1694053248.000,16.955
4258.836,-20.996,-83.008,-318.848,-33.203,-142.090,1694053248.000,16.959
4258.840,-17.090,-79.590,55.664,-13.672,-135.254,1694053248.000,16.963
4258.844,-24.902,-85.938,146.484,-29.297,-148.926,1694053248.000,16.967
4258.848,-22.461,-79.102,111.328,-32.715,-106.445,1694053248.000,16.971
4258.852,-29.785,-81.055,-380.859,-28.809,142.090,1694053248.000,16.974
4258.856,-51.270,-83.496,-430.664,-24.902,158.691,1694053248.000,16.978
4258.860,-18.066,-67.383,190.918,-12.207,-116.211,1694053248.000,16.982
4258.864,-32.715,-67.383,151.367,-15.625,-34.668,1694053248.000,16.986
4258.868,-43.457,-67.383,83.008,-20.020,88.867,1694053248.000,16.990
4258.868,-30.762,-67.383,6.348,-22.949,-38.574,1694053248.000,16.990
4258.872,-31.250,-65.918,-170.410,-27.344,-115.723,1694053248.000,16.994
4258.876,-28.320,-66.895,-2.441,-24.414,-33.203,1694053248.000,16.998
4258.880,-25.879,-67.871,152.832,-32.715,23.438,1694053248.000,17.002
4258.883,-23.438,-65.918,175.781,-34.180,64.453,1694053248.000,17.006
4258.887,-40.527,-62.500,-101.562,-45.410,100.586,1694053248.000,17.010
4258.891,-40.039,-58.594,-406.250,-40.527,147.949,1694053248.000,17.014
4258.895,-36.621,-64.941,-500.977,-21.973,410.645,1694053248.000,17.017
4258.899,-43.945,-66.895,-119.141,-36.133,252.441,1694053248.000,17.021
4258.903,-29.297,-69.824,310.547,-23.438,-65.430,1694053248.000,17.025
4258.907,-27.832,-71.777,-44.434,-33.203,3.906,1694053248.000,17.029
4258.911,-45.410,-68.359,-280.273,-52.246,18.066,1694053248.000,17.033
4258.916,-17.090,-46.875,84.961,-23.438,-44.922,1694053248.000,17.038
4258.920,-0.977,-15.137,202.637,-3.418,-11.719,1694053248.000,17.042
4258.924,-30.762,0.977,15.137,-17.578,69.336,1694053248.000,17.046
4258.928,-48.340,3.906,3.906,-32.227,14.648,1694053248.000,17.050
4258.932,-40.039,-0.977,-167.969,-34.668,-90.332,1694053248.000,17.054
4258.936,-51.758,0.977,-194.336,-27.832,-76.660,1694053248.000,17.058
4258.939,-31.738,-1.465,-223.145,-6.836,213.379,1694053248.000,17.062
4258.943,-40.039,-4.395,-132.324,4.395,272.949,1694053248.000,17.065
4258.947,-51.270,-1.465,166.504,-1.465,-74.219,1694053248.000,17.069
4258.951,-8.301,0.977,-229.492,-27.832,-84.961,1694053248.000,17.073
4258.955,-15.137,-1.953,-164.062,-37.598,-2.441,1694053248.000,17.077
4258.959,-49.316,-5.859,210.938,-19.531,-18.066,1694053248.000,17.081
4258.958,-52.246,-5.371,248.047,-0.488,-44.922,1694053248.000,17.081
4258.962,-34.668,-2.441,56.641,0.488,9.766,1694053248.000,17.085
4258.966,-31.738,1.465,-316.895,-14.648,-15.137,1694053248.000,17.089
4258.970,-11.719,1.953,-211.914,-36.621,-56.641,1694053248.000,17.093
4258.974,-1.465,-3.906,77.148,-55.176,-12.207,1694053248.000,17.097
4258.978,-16.113,-5.859,64.941,-45.410,43.945,1694053248.000,17.101
4258.982,-5.371,-4.395,-396.973,-29.785,376.465,1694053248.000,17.105
4258.985,-10.254,-6.348,-568.848,-13.184,298.340,1694053248.000,17.108
4258.989,-44.922,-14.648,-147.949,-8.789,-111.816,1694053248.000,17.112
4258.993,-56.641,-16.113,-48.340,-19.531,-65.430,1694053248.000,17.116
4258.997,-77.148,-23.926,-41.992,-40.039,12.207,1694053248.000,17.120
4259.001,-73.730,-22.461,180.664,-48.828,-104.004,1694053248.000,17.124
4259.019,-39.551,-20.508,-116.699,-39.062,-129.883,1694053248.000,17.141
4259.022,-52.734,-30.273,-329.102,-31.738,-98.145,1694053248.000,17.145
4259.026,-53.223,-30.273,64.941,-20.508,-75.684,1694053248.000,17.149
4259.030,-27.832,-40.039,259.277,-7.324,-58.105,1694053248.000,17.153
4259.034,-32.227,-44.434,154.785,-6.348,-66.406,1694053248.000,17.157
4259.038,-41.992,-49.805,-223.145,-11.230,20.996,1694053248.000,17.161
4259.042,-45.898,-54.688,-359.863,-13.184,68.359,1694053248.000,17.165
4259.046,-38.086,-36.621,-24.902,-6.836,27.832,1694053248.000,17.168
4259.050,-6.836,-25.391,240.234,-3.418,-50.781,1694053248.000,17.172
4259.054,-11.230,-21.973,-113.281,-1.465,146.973,1694053248.000,17.176
4259.058,-37.598,-16.113,-426.758,-12.207,199.219,1694053248.000,17.180
4259.061,-24.414,-10.254,-122.070,-21.484,-110.352,1694053248.000,17.184
4259.063,-8.789,-7.812,104.980,-7.812,-125.977,1694053248.000,17.185
4259.067,-7.812,-8.301,178.711,-9.277,-85.938,1694053248.000,17.189
4259.071,7.324,8.301,258.789,-11.719,-90.332,1694053248.000,17.193
4259.075,42.969,12.695,126.953,-18.066,-176.270,1694053248.000,17.197
4259.078,68.848,-7.324,-321.777,-27.832,-66.895,1694053248.000,17.201
4259.082,87.891,-4.395,-194.336,-12.695,65.918,1694053248.000,17.205
4259.086,81.543,-1.465,202.148,-8.789,-4.395,1694053248.000,17.209
4259.090,35.156,-10.254,250.000,-17.578,-31.738,1694053248.000,17.212
4259.094,1.953,-10.742,-115.723,-14.648,-27.832,1694053248.000,17.216
4259.098,-62.012,-20.996,-604.492,0.488,239.258,1694053248.000,17.220
4259.102,-124.023,-26.855,-38.086,8.789,97.168,1694053248.000,17.224
4259.106,-113.770,-24.902,312.012,2.441,-179.688,1694053248.000,17.228
4259.110,-84.961,-31.250,207.031,-1.465,-99.609,1694053248.000,17.232
4259.114,-61.035,-31.738,126.953,-15.625,-129.883,1694053248.000,17.236
4259.118,-49.316,-27.832,-10.254,-30.762,-178.711,1694053248.000,17.240
4259.121,-51.270,-12.695,115.723,-26.855,-137.207,1694053248.000,17.244
4259.125,-51.270,0.000,204.102,-30.762,-88.379,1694053248.000,17.248
4259.129,-41.504,2.441,175.293,-21.484,17.090,1694053248.000,17.252
4259.133,-33.691,-0.977,24.414,-18.066,-0.488,1694053248.000,17.256
4259.137,-26.855,5.859,-203.125,-24.414,-157.227,1694053248.000,17.259
4259.141,-35.645,19.043,-400.879,-13.184,23.926,1694053248.000,17.263
4259.145,-37.598,18.555,-135.254,0.488,80.566,1694053248.000,17.267
4259.149,-39.062,16.113,314.941,-2.441,-137.695,1694053248.000,17.271
4259.153,-21.973,16.602,119.141,-15.625,-121.582,1694053248.000,17.275
4259.153,-14.160,19.531,-286.133,-34.668,-86.426,1694053248.000,17.276
4259.157,-42.969,20.508,-101.562,-32.227,-128.418,1694053248.000,17.280
4259.161,-39.062,17.578,242.188,-24.414,-192.871,1694053248.000,17.284
4259.165,-20.996,12.695,103.516,-21.484,-85.938,1694053248.000,17.288
4259.169,-11.719,14.160,-214.355,-21.973,127.441,1694053248.000,17.292
4259.173,-17.090,20.020,-360.352,-31.250,31.250,1694053248.000,17.296
4259.177,-27.344,15.137,-271.484,-31.250,-65.918,1694053248.000,17.300
4259.181,-35.156,3.418,-136.230,-20.996,1.953,1694053248.000,17.303
4259.184,-25.391,-5.859,-410.156,-10.254,202.148,1694053248.000,17.307
4259.188,-18.555,-11.230,-185.059,-19.531,101.074,1694053248.000,17.311
4259.192,-17.578,-19.531,-53.223,-41.504,-202.637,1694053248.000,17.315
4259.196,-35.156,-25.391,-329.590,-41.992,-231.445,1694053248.000,17.319
4259.199,-39.062,-21.484,27.344,-38.086,-222.656,1694053248.000,17.322
4259.203,-36.133,-20.508,220.215,-35.645,-282.715,1694053248.000,17.326
4259.207,-27.832,-30.762,114.746,-42.480,-247.070,1694053248.000,17.330
4259.211,-29.785,-32.715,-223.145,-57.129,-62.988,1694053248.000,17.334
4259.215,-69.336,-25.879,-351.562,-63.965,-96.680,1694053248.000,17.338
4259.219,-65.430,-22.949,-198.242,-59.570,-129.395,1694053248.000,17.342
4259.223,-51.758,-28.320,-68.359,-53.711,-153.320,1694053248.000,17.346
4259.227,-53.223,-30.273,-304.199,-58.105,-17.090,1694053248.000,17.349
4259.231,-46.875,-30.762,-473.633,-66.895,108.398,1694053248.000,17.353
4259.235,-53.711,-38.086,-253.906,-68.359,-150.879,1694053248.000,17.357
4259.239,-50.293,-41.992,-88.867,-59.570,-206.543,1694053248.000,17.361
4259.242,-61.035,-48.828,44.434,-66.895,-184.082,1694053248.000,17.365
4259.258,-64.453,-48.340,184.570,-69.824,-191.406,1694053248.000,17.380
4259.262,-43.945,-45.898,21.973,-67.871,-131.836,1694053248.000,17.384
4259.266,-33.203,-52.734,-376.953,-70.801,-65.430,1694053248.000,17.388
4259.270,-52.246,-46.387,-175.293,-63.965,-88.867,1694053248.000,17.392
4259.274,-55.176,-48.828,111.328,-54.199,-96.680,1694053248.000,17.396
4259.277,-27.832,-60.547,121.094,-57.129,3.906,1694053248.000,17.400
4259.281,-20.020,-50.781,-151.855,-69.336,150.391,1694053248.000,17.404
4259.285,-20.020,-46.387,-711.426,-61.035,406.250,1694053248.000,17.407
4259.289,-15.137,-45.898,-316.406,-48.828,241.211,1694053248.000,17.411
4259.293,-48.340,-56.641,208.008,-45.410,-155.273,1694053248.000,17.415
4259.297,-61.035,-62.988,89.844,-46.387,-117.188,1694053248.000,17.419
4259.301,-44.922,-50.781,32.227,-51.270,-24.414,1694053248.000,17.423
4259.290,-44.434,-45.898,-145.996,-50.781,-64.453,1694053248.000,17.412
4259.293,-55.664,-52.734,-94.727,-41.504,-116.699,1694053248.000,17.416
4259.297,-56.641,-49.316,63.477,-35.156,-140.625,1694053248.000,17.420
4259.301,-49.805,-49.316,118.164,-39.551,-158.203,1694053248.000,17.424
4259.305,-36.133,-55.176,106.445,-48.340,-125.488,1694053248.000,17.428
4259.309,-27.344,-53.223,-296.387,-50.781,-15.625,1694053248.000,17.432
4259.313,-35.645,-46.875,-331.543,-45.898,-7.324,1694053248.000,17.436
4259.317,-30.762,-47.852,53.711,-41.992,-128.418,1694053248.000,17.439
4259.321,-31.738,-53.711,187.012,-35.156,-131.348,1694053248.000,17.443
4259.325,-18.555,-53.711,60.059,-41.016,-30.273,1694053248.000,17.447
4259.329,-48.340,-52.734,-364.746,-41.504,157.715,1694053248.000,17.451
4259.333,-60.059,-41.504,-301.758,-44.434,83.496,1694053248.000,17.455
4259.333,-16.113,-42.969,164.062,-41.992,-177.246,1694053248.000,17.455
4259.337,-18.555,-46.387,146.973,-32.715,-132.324,1694053248.000,17.459
4259.341,-15.625,-41.504,-157.227,-23.438,65.430,1694053248.000,17.463
4259.345,-0.977,-40.039,-279.785,-30.762,28.320,1694053248.000,17.467
4259.349,-28.320,-52.246,-229.980,-55.664,-124.023,1694053248.000,17.471
4259.353,-43.457,-61.523,-282.227,-55.176,-37.598,1694053248.000,17.475
4259.356,-30.273,-50.781,-368.652,-50.293,185.059,1694053248.000,17.479
4259.360,-10.254,-41.016,3.906,-52.246,118.164,1694053248.000,17.482
4259.364,-11.719,-40.039,38.086,-58.105,-113.770,1694053248.000,17.486
4259.368,-35.156,-39.062,-416.504,-56.641,-57.129,1694053248.000,17.490
4259.372,-30.273,-39.551,-236.328,-49.316,-28.809,1694053248.000,17.494
4259.376,-38.574,-40.527,166.992,-37.109,-140.137,1694053248.000,17.498
4259.381,-34.668,-37.598,185.059,-34.668,-111.816,1694053248.000,17.504
4259.385,-13.672,-38.574,-128.906,-41.504,2.930,1694053248.000,17.508
4259.389,-21.973,-39.551,-325.195,-47.363,-36.621,1694053248.000,17.512
4259.393,-44.434,-40.039,49.316,-49.805,-203.125,1694053248.000,17.516
4259.397,-30.273,-41.992,196.777,-38.574,-192.383,1694053248.000,17.520
4259.401,-13.672,-39.551,29.785,-35.645,-11.230,1694053248.000,17.524
4259.405,-27.344,-38.086,-227.051,-48.828,105.957,1694053248.000,17.528
4259.409,-30.273,-36.133,-281.738,-62.988,-43.457,1694053248.000,17.531
4259.413,-20.996,-43.457,-41.504,-50.293,-172.852,1694053248.000,17.535
4259.416,-18.555,-44.434,-93.750,-34.180,0.977,1694053248.000,17.539
4259.420,-15.625,-37.598,-6.836,-30.273,60.059,1694053248.000,17.543
4259.424,-32.227,-48.340,123.047,-46.875,-37.598,1694053248.000,17.547
4259.439,-41.504,-52.734,-274.414,-68.848,-79.102,1694053248.000,17.561
4259.443,-34.668,-49.805,-186.523,-66.406,-123.535,1694053248.000,17.565
4259.447,-27.832,-47.363,140.625,-57.129,-88.379,1694053248.000,17.569
4259.451,-14.160,-40.527,240.723,-52.246,-114.258,1694053248.000,17.573
4259.455,-9.766,-40.527,-84.473,-53.711,21.973,1694053248.000,17.577
4259.458,-16.113,-36.133,-631.836,-52.246,320.801,1694053248.000,17.581
4259.462,-31.250,-37.598,-329.590,-45.410,150.879,1694053248.000,17.585
4259.466,-34.180,-49.805,169.922,-42.480,-103.027,1694053248.000,17.588
4259.470,-35.645,-56.641,39.551,-28.320,-6.348,1694053248.000,17.592
4259.474,-18.066,-56.641,-282.227,-23.926,113.770,1694053248.000,17.596
4259.478,-49.316,-60.547,-257.812,-46.875,-74.219,1694053248.000,17.600
4259.482,-81.543,-65.918,-91.309,-60.547,-183.594,1694053248.000,17.604
4259.500,-24.902,-61.035,100.098,-49.316,-120.117,1694053248.000,17.622
4259.504,-2.441,-63.965,173.340,-40.527,-97.168,1694053248.000,17.626
4259.507,-23.926,-65.918,176.270,-51.270,-83.496,1694053248.000,17.630
4259.511,-19.043,-64.453,-169.434,-65.430,-119.141,1694053248.000,17.634
4259.515,-22.461,-63.477,-322.754,-59.570,-127.441,1694053248.000,17.638
4259.519,-37.598,-61.035,-49.316,-45.898,-76.660,1694053248.000,17.642
4259.523,-14.648,-67.383,126.953,-48.828,-22.949,1694053248.000,17.646
4259.527,-16.602,-63.965,134.277,-62.012,38.574,1694053248.000,17.649
4259.531,-36.621,-65.918,-408.203,-60.547,170.410,1694053248.000,17.653
4259.535,-35.156,-63.477,-543.457,-59.570,159.180,1694053248.000,17.657
4259.539,-36.621,-55.664,122.070,-58.105,-150.391,1694053248.000,17.661
4259.543,-18.555,-60.547,186.035,-44.922,-145.996,1694053248.000,17.665
4259.528,-11.719,-59.570,120.117,-48.340,-38.086,1694053248.000,17.650
4259.532,-56.152,-53.711,-40.527,-66.895,-59.570,1694053248.000,17.654
4259.536,-46.875,-52.734,-182.617,-69.336,-139.648,1694053248.000,17.658
4259.540,-14.160,-53.223,17.090,-54.688,-150.391,1694053248.000,17.662
4259.544,-29.785,-51.758,-164.551,-58.594,-156.250,1694053248.000,17.666
4259.547,-38.574,-49.805,-228.516,-62.012,-107.422,1694053248.000,17.670
4259.551,-8.301,-51.758,180.176,-31.250,245.605,1694053248.000,17.674
4259.555,-24.902,-69.824,-26.367,-34.180,423.340,1694053248.000,17.677
4259.559,-64.453,-81.543,-457.520,-73.242,-31.738,1694053248.000,17.681
4259.563,-66.895,-79.102,-301.758,-73.242,-406.738,1694053248.000,17.685
4259.567,-31.738,-75.195,-20.996,-53.223,-321.777,1694053248.000,17.689
4259.571,-15.137,-73.730,183.594,-14.648,228.027,1694053248.000,17.693
4259.575,-14.648,-74.219,-341.309,-9.766,658.203,1694053248.000,17.697
4259.578,-29.785,-68.848,-540.039,-59.570,78.125,1694053248.000,17.701
4259.582,-36.621,-63.965,-276.367,-68.848,-406.250,1694053248.000,17.705
4259.586,-24.902,-69.336,-209.961,-37.598,-285.645,1694053248.000,17.709
4259.590,-15.625,-63.477,238.281,-3.418,144.531,1694053248.000,17.713
4259.594,-17.578,-60.547,228.516,-14.160,324.219,1694053248.000,17.717
4259.598,-49.805,-59.082,-282.227,-65.918,-127.441,1694053248.000,17.721
4259.602,-38.574,-43.945,-606.445,-74.219,-234.863,1694053248.000,17.724
4259.606,-24.414,-28.809,-313.965,-56.152,-144.531,1694053248.000,17.728
4259.610,-17.090,-19.531,349.609,-19.043,35.156,1694053248.000,17.732
4259.614,-4.395,-19.531,252.441,-2.441,343.750,1694053248.000,17.736
4259.618,-22.949,-20.508,-263.184,-51.270,-6.348,1694053248.000,17.740
4259.618,-34.180,-20.996,-358.887,-74.219,-444.336,1694053248.000,17.740
4259.622,-42.969,-32.715,-110.352,-52.246,-417.480,1694053248.000,17.744
4259.626,-49.805,-37.598,193.848,-14.160,19.043,1694053248.000,17.748
4259.630,-21.484,-35.156,328.125,0.488,388.184,1694053248.000,17.752
4259.634,-12.207,-35.156,-104.004,-41.992,-13.184,1694053248.000,17.756
4259.638,-24.414,-32.715,-429.199,-71.289,-359.863,1694053248.000,17.760
4259.641,-11.230,-31.738,-375.000,-54.199,-205.566,1694053248.000,17.764
4259.645,2.930,-40.039,-417.969,-8.301,330.078,1694053248.000,17.767
4259.649,16.113,-41.992,90.820,12.695,584.961,1694053248.000,17.771
4259.653,-16.113,-43.945,112.305,-31.738,-1.953,1694053248.000,17.775
4259.657,-30.762,-40.527,-366.211,-70.801,-426.270,1694053248.000,17.779
4259.661,-41.504,-37.598,-210.938,-62.500,-395.508,1694053248.000,17.783
4259.681,-40.039,-42.969,195.312,-33.203,-130.859,1694053248.000,17.803
4259.685,15.625,-39.062,364.258,-8.789,369.629,1694053248.000,17.807
4259.689,-27.832,-41.016,-86.426,-43.945,247.559,1694053248.000,17.811
4259.693,-54.199,-43.457,-363.281,-83.496,-289.551,1694053248.000,17.815
4259.697,-15.137,-41.016,-257.812,-77.148,-420.410,1694053248.000,17.819
4259.701,-23.926,-43.457,-52.246,-44.922,-161.621,1694053248.000,17.823
4259.704,-4.395,-46.387,113.281,2.441,554.688,1694053248.000,17.827
4259.708,8.789,-41.992,-189.453,-31.250,434.082,1694053248.000,17.830
4259.712,-51.270,-41.504,-313.477,-82.031,-413.574,1694053248.000,17.834
4259.716,-60.059,-45.410,-327.637,-65.430,-515.625,1694053248.000,17.838
4259.720,-20.996,-46.387,-64.453,-33.203,-203.613,1694053248.000,17.842
4259.724,-8.301,-45.898,393.555,-3.418,278.809,1694053248.000,17.846
4259.708,-23.926,-60.059,214.355,-28.809,204.102,1694053248.000,17.830
