Timestamp,TP9,AF7,AF8,TP10,AUX
2024-01-08 17:28:03.305700,873.1502075195312,766.7765502929688,809.89013671875,829.6337280273438,1048.02197265625
2024-01-08 17:28:03.306525,843.7362670898438,763.9560546875,812.3076782226562,818.3516235351562,924.7252807617188
2024-01-08 17:28:03.306951,845.7509155273438,762.7472534179688,807.87548828125,795.3846435546875,893.6996459960938
2024-01-08 17:28:03.307720,853.8095092773438,757.912109375,810.6959838867188,849.7802124023438,670.4761962890625
2024-01-08 17:28:03.307825,832.4542236328125,759.120849609375,813.91943359375,797.3992919921875,815.5311279296875
2024-01-08 17:28:03.308289,838.09521484375,753.076904296875,813.91943359375,823.99267578125,799.8168334960938
2024-01-08 17:28:03.308373,838.4981689453125,759.9267578125,822.3809814453125,835.6776733398438,877.1795043945312
2024-01-08 17:28:03.309227,840.915771484375,762.7472534179688,808.2783813476562,826.4102783203125,734.1392211914062
2024-01-08 17:28:03.310125,849.3773193359375,759.5238037109375,807.87548828125,818.3516235351562,700.2930297851562
2024-01-08 17:28:03.311650,862.6740112304688,764.7619018554688,812.7106323242188,820.3662719726562,746.6300659179688
2024-01-08 17:28:03.311945,835.2747192382812,759.9267578125,821.97802734375,818.3516235351562,732.5274658203125
2024-01-08 17:28:03.313165,854.6153564453125,760.3296508789062,817.1428833007812,834.8717651367188,1042.783935546875
2024-01-08 17:28:03.338366,853.4066162109375,765.1648559570312,805.8607788085938,804.6520385742188,894.1025390625
2024-01-08 17:28:03.338473,846.959716796875,759.120849609375,810.2930297851562,809.084228515625,701.90478515625
2024-01-08 17:28:03.339239,832.05126953125,761.1355590820312,815.5311279296875,826.8131713867188,940.03662109375
2024-01-08 17:28:03.340247,838.09521484375,756.7033081054688,817.94873046875,829.2307739257812,750.2564086914062
2024-01-08 17:28:03.340394,857.4359130859375,757.106201171875,817.94873046875,830.4395751953125,836.08056640625
2024-01-08 17:28:03.340470,853.4066162109375,764.3589477539062,817.1428833007812,825.6043701171875,831.6483764648438
2024-01-08 17:28:03.340536,828.02197265625,758.7179565429688,817.1428833007812,818.3516235351562,866.7033081054688
2024-01-08 17:28:03.340747,842.12451171875,768.7911987304688,811.098876953125,824.3956298828125,955.7509155273438
2024-01-08 17:28:03.340826,830.4395751953125,753.8828125,816.7399291992188,818.7545776367188,641.062255859375
2024-01-08 17:28:03.340895,855.4212646484375,758.7179565429688,816.7399291992188,821.97802734375,989.5970458984375
2024-01-08 17:28:03.340962,819.1575317382812,756.7033081054688,815.1282348632812,823.1868286132812,835.6776733398438
2024-01-08 17:28:03.343970,861.8681030273438,764.7619018554688,814.3223266601562,862.6740112304688,755.4945068359375
2024-01-08 17:28:03.378363,865.8974609375,765.1648559570312,817.5457763671875,845.3479614257812,703.91943359375
2024-01-08 17:28:03.378887,855.018310546875,768.3883056640625,814.3223266601562,823.99267578125,870.3296508789062
2024-01-08 17:28:03.382000,825.2014770507812,760.3296508789062,809.4871826171875,799.4139404296875,864.2857055664062
2024-01-08 17:28:03.382122,829.2307739257812,749.4505615234375,817.5457763671875,826.4102783203125,679.3406372070312
2024-01-08 17:28:03.384711,838.901123046875,761.1355590820312,809.084228515625,823.5897216796875,619.3040161132812
2024-01-08 17:28:03.386244,847.3626098632812,763.1502075195312,817.94873046875,804.2490844726562,829.6337280273438
2024-01-08 17:28:03.386504,850.989013671875,753.076904296875,819.5604248046875,827.2161254882812,924.3223266601562
2024-01-08 17:28:03.386699,867.912109375,751.8681030273438,816.3369750976562,830.4395751953125,994.4322509765625
2024-01-08 17:28:03.388081,870.3296508789062,766.7765502929688,823.1868286132812,855.4212646484375,761.1355590820312
2024-01-08 17:28:03.388331,811.098876953125,751.8681030273438,815.1282348632812,829.2307739257812,726.08056640625
2024-01-08 17:28:03.388625,828.4249267578125,759.9267578125,815.93408203125,814.3223266601562,658.7911987304688
2024-01-08 17:28:03.391928,875.1648559570312,767.1795043945312,820.3662719726562,869.120849609375,667.2527465820312
2024-01-08 17:28:03.458681,837.2893676757812,759.9267578125,809.89013671875,813.91943359375,806.2637329101562
2024-01-08 17:28:03.458788,859.047607421875,767.5823974609375,809.4871826171875,832.4542236328125,667.2527465820312
2024-01-08 17:28:03.458860,855.018310546875,760.3296508789062,815.93408203125,852.1978149414062,653.1502075195312
2024-01-08 17:28:03.459237,834.06591796875,751.062255859375,814.3223266601562,829.2307739257812,956.1538696289062
2024-01-08 17:28:03.461346,839.7069702148438,764.3589477539062,811.5018310546875,853.4066162109375,953.7362670898438
2024-01-08 17:28:03.461725,867.912109375,771.6116943359375,819.5604248046875,846.1538696289062,769.1941528320312
2024-01-08 17:28:03.461803,828.02197265625,747.4359130859375,817.94873046875,820.7692260742188,1142.7105712890625
2024-01-08 17:28:03.461877,855.8241577148438,767.1795043945312,823.99267578125,848.974365234375,799.8168334960938
2024-01-08 17:28:03.463514,826.00732421875,753.8828125,817.5457763671875,848.5714111328125,1131.83154296875
2024-01-08 17:28:03.468809,849.7802124023438,765.5677490234375,812.7106323242188,830.8424682617188,722.4542236328125
2024-01-08 17:28:03.470692,828.02197265625,758.3150024414062,813.5164794921875,825.6043701171875,935.2014770507812
2024-01-08 17:28:03.474495,830.03662109375,758.7179565429688,822.7838745117188,825.6043701171875,902.5640869140625
2024-01-08 17:28:03.488404,846.5567626953125,759.5238037109375,817.94873046875,842.930419921875,695.054931640625
2024-01-08 17:28:03.488885,837.6923217773438,755.8974609375,821.97802734375,855.4212646484375,738.974365234375
2024-01-08 17:28:03.490122,839.7069702148438,760.7326049804688,819.96337890625,855.018310546875,695.054931640625
2024-01-08 17:28:03.490212,843.7362670898438,761.94140625,814.7252807617188,834.4688720703125,642.2710571289062
2024-01-08 17:28:03.490775,812.3076782226562,743.8095092773438,820.3662719726562,816.3369750976562,961.7948608398438
2024-01-08 17:28:03.490958,861.8681030273438,759.9267578125,816.7399291992188,844.1392211914062,779.2673950195312
2024-01-08 17:28:03.492935,838.4981689453125,755.091552734375,817.1428833007812,843.7362670898438,1001.6849975585938
2024-01-08 17:28:03.493331,836.4835205078125,758.3150024414062,819.5604248046875,836.4835205078125,933.99267578125
2024-01-08 17:28:03.495815,844.5421142578125,755.4945068359375,823.5897216796875,861.062255859375,894.908447265625
2024-01-08 17:28:03.496089,828.8278198242188,757.5091552734375,831.2454223632812,849.7802124023438,1095.5677490234375
2024-01-08 17:28:03.496210,848.974365234375,753.4798583984375,823.99267578125,867.5091552734375,966.6300659179688
2024-01-08 17:28:03.498611,834.8717651367188,754.6886596679688,818.7545776367188,826.00732421875,900.952392578125
2024-01-08 17:28:03.520601,836.4835205078125,748.2417602539062,815.93408203125,824.7985229492188,711.1721801757812
2024-01-08 17:28:03.520700,805.8607788085938,749.4505615234375,821.97802734375,831.6483764648438,633.003662109375
2024-01-08 17:28:03.521078,817.1428833007812,752.2710571289062,816.3369750976562,819.5604248046875,771.2088012695312
2024-01-08 17:28:03.521153,843.3333129882812,764.7619018554688,813.91943359375,832.8571166992188,734.5421142578125
2024-01-08 17:28:03.521248,858.2417602539062,763.1502075195312,816.3369750976562,823.5897216796875,752.2710571289062
2024-01-08 17:28:03.521746,824.7985229492188,760.7326049804688,819.96337890625,849.3773193359375,1024.2490234375
2024-01-08 17:28:03.524933,805.4578857421875,761.5384521484375,821.1721801757812,854.6153564453125,772.8204956054688
2024-01-08 17:28:03.527549,806.2637329101562,754.6886596679688,814.7252807617188,821.5750732421875,847.7655639648438
2024-01-08 17:28:03.527995,797.3992919921875,759.120849609375,825.2014770507812,840.5128173828125,585.054931640625
2024-01-08 17:28:03.531744,799.4139404296875,751.062255859375,815.1282348632812,807.87548828125,832.4542236328125
2024-01-08 17:28:03.533582,819.1575317382812,757.912109375,816.3369750976562,826.00732421875,922.3076782226562
2024-01-08 17:28:03.536161,817.5457763671875,757.912109375,813.91943359375,828.02197265625,689.010986328125
2024-01-08 17:28:03.588407,852.1978149414062,756.7033081054688,819.1575317382812,823.5897216796875,767.9853515625
2024-01-08 17:28:03.588506,827.2161254882812,745.4212646484375,813.113525390625,823.5897216796875,589.4871826171875
2024-01-08 17:28:03.588573,804.2490844726562,747.032958984375,808.6813354492188,829.2307739257812,624.1392211914062
2024-01-08 17:28:03.590574,835.6776733398438,753.076904296875,810.6959838867188,861.062255859375,774.4322509765625
2024-01-08 17:28:03.590925,848.1685180664062,762.7472534179688,806.6666870117188,828.4249267578125,721.6483764648438
2024-01-08 17:28:03.591030,844.1392211914062,757.5091552734375,809.4871826171875,851.7948608398438,687.3992919921875
2024-01-08 17:28:03.593500,822.3809814453125,759.120849609375,803.4432373046875,814.3223266601562,834.06591796875
2024-01-08 17:28:03.594102,816.3369750976562,758.7179565429688,799.8168334960938,809.084228515625,1048.4249267578125
2024-01-08 17:28:03.594347,838.4981689453125,761.1355590820312,806.6666870117188,810.6959838867188,1119.3406982421875
2024-01-08 17:28:03.594424,833.6630249023438,748.2417602539062,806.6666870117188,863.076904296875,907.3992919921875
2024-01-08 17:28:03.595231,829.6337280273438,751.8681030273438,806.6666870117188,846.1538696289062,917.4725341796875
2024-01-08 17:28:03.595334,820.3662719726562,761.1355590820312,812.3076782226562,803.4432373046875,680.952392578125
2024-01-08 17:28:03.619913,804.2490844726562,757.106201171875,811.90478515625,821.97802734375,752.6740112304688
2024-01-08 17:28:03.622477,792.5640869140625,745.018310546875,815.1282348632812,847.3626098632812,725.2747192382812
2024-01-08 17:28:03.622576,809.89013671875,760.3296508789062,806.2637329101562,828.02197265625,865.8974609375
2024-01-08 17:28:03.622838,822.7838745117188,759.5238037109375,815.5311279296875,859.4505615234375,964.6153564453125
2024-01-08 17:28:03.623090,815.5311279296875,753.8828125,814.3223266601562,846.1538696289062,667.2527465820312
2024-01-08 17:28:03.623306,805.4578857421875,765.970703125,820.7692260742188,819.96337890625,801.025634765625
2024-01-08 17:28:03.623378,791.7582397460938,755.091552734375,806.2637329101562,821.97802734375,650.3296508789062
2024-01-08 17:28:03.623446,795.3846435546875,740.989013671875,816.7399291992188,849.7802124023438,931.5750732421875
2024-01-08 17:28:03.623510,797.3992919921875,744.6153564453125,814.3223266601562,826.4102783203125,960.5860595703125
2024-01-08 17:28:03.623575,811.5018310546875,761.1355590820312,809.084228515625,803.8461303710938,900.1465454101562
2024-01-08 17:28:03.624578,798.2051391601562,759.5238037109375,811.098876953125,813.5164794921875,975.091552734375
2024-01-08 17:28:03.624778,812.3076782226562,755.091552734375,810.6959838867188,799.8168334960938,867.5091552734375
2024-01-08 17:28:03.693080,796.5933837890625,762.3442993164062,815.5311279296875,813.113525390625,785.7142944335938
2024-01-08 17:28:03.693697,782.087890625,758.3150024414062,818.3516235351562,827.2161254882812,864.2857055664062
2024-01-08 17:28:03.696114,818.3516235351562,757.5091552734375,809.084228515625,836.08056640625,898.1318969726562
2024-01-08 17:28:03.696507,767.9853515625,754.6886596679688,819.1575317382812,825.6043701171875,840.915771484375
2024-01-08 17:28:03.696586,817.1428833007812,761.5384521484375,819.5604248046875,834.8717651367188,724.4688720703125
2024-01-08 17:28:03.696667,820.7692260742188,754.2857055664062,817.5457763671875,848.974365234375,682.967041015625
2024-01-08 17:28:03.696732,788.1318969726562,756.7033081054688,822.3809814453125,832.8571166992188,855.018310546875
2024-01-08 17:28:03.697205,821.5750732421875,753.8828125,810.2930297851562,840.5128173828125,799.8168334960938
2024-01-08 17:28:03.699879,805.4578857421875,759.120849609375,825.2014770507812,847.3626098632812,839.3040161132812
2024-01-08 17:28:03.705641,808.2783813476562,761.5384521484375,830.4395751953125,842.12451171875,833.2600708007812
2024-01-08 17:28:03.711348,806.2637329101562,762.7472534179688,817.1428833007812,832.05126953125,691.4285888671875
2024-01-08 17:28:03.711463,811.098876953125,761.5384521484375,833.6630249023438,859.047607421875,873.1502075195312
2024-01-08 17:28:03.724770,816.7399291992188,763.9560546875,830.03662109375,867.106201171875,751.8681030273438
2024-01-08 17:28:03.724916,810.2930297851562,767.9853515625,822.7838745117188,851.3919677734375,699.89013671875
2024-01-08 17:28:03.729330,817.94873046875,760.7326049804688,828.4249267578125,843.7362670898438,652.7472534179688
2024-01-08 17:28:03.729677,807.87548828125,759.5238037109375,824.3956298828125,835.2747192382812,645.091552734375
2024-01-08 17:28:03.729763,826.00732421875,757.912109375,828.4249267578125,848.5714111328125,1018.6080322265625
2024-01-08 17:28:03.730382,815.1282348632812,758.3150024414062,826.8131713867188,865.4945068359375,848.974365234375
2024-01-08 17:28:03.741393,812.3076782226562,763.5531005859375,826.00732421875,826.4102783203125,848.974365234375
2024-01-08 17:28:03.746179,821.5750732421875,769.1941528320312,816.3369750976562,820.7692260742188,689.8168334960938
2024-01-08 17:28:03.746368,838.901123046875,773.6264038085938,822.7838745117188,861.8681030273438,666.4468994140625
2024-01-08 17:28:03.746448,849.3773193359375,759.120849609375,835.6776733398438,890.4761962890625,692.6373901367188
2024-01-08 17:28:03.750064,822.3809814453125,766.7765502929688,833.2600708007812,883.6264038085938,767.9853515625
2024-01-08 17:28:03.758432,836.08056640625,772.0146484375,834.06591796875,891.2820434570312,729.3040161132812
2024-01-08 17:28:03.760542,819.1575317382812,767.5823974609375,836.886474609375,859.8534545898438,731.3186645507812
2024-01-08 17:28:03.760699,847.3626098632812,768.7911987304688,837.2893676757812,878.3883056640625,917.069580078125
2024-01-08 17:28:03.765929,830.4395751953125,765.1648559570312,838.901123046875,882.0146484375,862.6740112304688
2024-01-08 17:28:03.767840,843.7362670898438,776.4468994140625,830.03662109375,911.4285888671875,782.893798828125
2024-01-08 17:28:03.769869,801.025634765625,758.3150024414062,833.6630249023438,865.091552734375,682.1611938476562
2024-01-08 17:28:03.769985,823.99267578125,765.970703125,833.2600708007812,881.6116943359375,716.00732421875
2024-01-08 17:28:03.770520,820.7692260742188,762.3442993164062,837.2893676757812,854.6153564453125,844.945068359375
2024-01-08 17:28:03.773854,835.2747192382812,763.5531005859375,833.2600708007812,871.1355590820312,783.2966918945312
2024-01-08 17:28:03.778538,804.2490844726562,756.3003540039062,830.03662109375,861.4652099609375,674.5054931640625
2024-01-08 17:28:03.779370,848.5714111328125,755.4945068359375,831.6483764648438,840.915771484375,875.5677490234375
2024-01-08 17:28:03.785857,844.5421142578125,763.5531005859375,839.7069702148438,873.1502075195312,920.2930297851562
2024-01-08 17:28:03.808734,837.2893676757812,765.5677490234375,835.6776733398438,877.5823974609375,1089.9267578125
2024-01-08 17:28:03.820545,835.6776733398438,773.2234497070312,834.4688720703125,886.4468994140625,830.8424682617188
2024-01-08 17:28:03.820957,840.915771484375,774.029296875,835.2747192382812,863.8828125,817.94873046875
2024-01-08 17:28:03.821110,820.7692260742188,768.7911987304688,838.09521484375,863.8828125,873.5531005859375
2024-01-08 17:28:03.821439,818.7545776367188,766.7765502929688,838.09521484375,854.6153564453125,762.7472534179688
2024-01-08 17:28:03.821522,828.02197265625,770.0,837.2893676757812,856.2271118164062,715.2014770507812
2024-01-08 17:28:03.821749,840.915771484375,773.2234497070312,834.06591796875,860.6593627929688,870.7326049804688
2024-01-08 17:28:03.821863,864.2857055664062,770.0,835.2747192382812,884.8351440429688,1177.3626708984375
2024-01-08 17:28:03.822237,812.7106323242188,763.1502075195312,836.4835205078125,869.9267578125,934.7985229492188
2024-01-08 17:28:03.828123,841.3186645507812,775.2380981445312,824.7985229492188,859.047607421875,801.4285888671875
2024-01-08 17:28:03.829979,839.3040161132812,763.5531005859375,835.6776733398438,878.3883056640625,1082.6739501953125
2024-01-08 17:28:03.836747,841.3186645507812,777.6557006835938,826.00732421875,863.8828125,957.7655639648438
2024-01-08 17:28:03.855380,857.032958984375,767.9853515625,829.6337280273438,863.8828125,938.02197265625
2024-01-08 17:28:03.857977,840.5128173828125,767.5823974609375,819.5604248046875,845.3479614257812,605.6043701171875
2024-01-08 17:28:03.858097,842.5274658203125,759.5238037109375,828.8278198242188,859.4505615234375,890.0732421875
2024-01-08 17:28:03.858238,846.959716796875,772.4176025390625,828.02197265625,844.5421142578125,802.6373901367188
2024-01-08 17:28:03.858381,842.12451171875,769.1941528320312,826.8131713867188,867.106201171875,705.93408203125
2024-01-08 17:28:03.858463,837.2893676757812,775.2380981445312,822.3809814453125,835.2747192382812,824.3956298828125
2024-01-08 17:28:03.858553,836.4835205078125,757.5091552734375,830.8424682617188,855.8241577148438,955.3479614257812
2024-01-08 17:28:03.859347,847.3626098632812,767.9853515625,819.5604248046875,829.6337280273438,759.9267578125
2024-01-08 17:28:03.866827,846.959716796875,774.029296875,828.02197265625,842.930419921875,829.6337280273438
2024-01-08 17:28:03.867603,853.8095092773438,778.4615478515625,824.7985229492188,867.5091552734375,983.1502075195312
2024-01-08 17:28:03.867938,836.08056640625,771.6116943359375,818.3516235351562,861.4652099609375,799.010986328125
2024-01-08 17:28:03.868383,857.8388061523438,769.1941528320312,819.96337890625,840.10986328125,678.1318969726562
2024-01-08 17:28:03.868587,843.3333129882812,772.4176025390625,820.3662719726562,869.5238037109375,765.5677490234375
2024-01-08 17:28:03.921388,861.062255859375,780.4761962890625,821.1721801757812,843.3333129882812,604.7985229492188
2024-01-08 17:28:03.921491,824.7985229492188,766.7765502929688,827.2161254882812,871.94140625,842.12451171875
2024-01-08 17:28:03.921563,830.8424682617188,770.8058471679688,829.2307739257812,844.1392211914062,757.5091552734375
2024-01-08 17:28:03.923595,848.5714111328125,765.5677490234375,821.1721801757812,838.901123046875,868.3150024414062
2024-01-08 17:28:03.924077,838.09521484375,770.8058471679688,830.03662109375,834.06591796875,630.1831665039062
2024-01-08 17:28:03.925567,853.8095092773438,778.05859375,821.97802734375,850.5860595703125,909.010986328125
2024-01-08 17:28:03.925831,870.7326049804688,767.1795043945312,829.2307739257812,858.6447143554688,834.8717651367188
2024-01-08 17:28:03.925907,855.8241577148438,772.4176025390625,830.8424682617188,860.2564086914062,867.912109375
2024-01-08 17:28:03.928011,843.7362670898438,775.6410522460938,824.7985229492188,870.3296508789062,920.6959838867188
2024-01-08 17:28:03.928107,857.8388061523438,783.6996459960938,816.3369750976562,849.7802124023438,677.3259887695312
2024-01-08 17:28:03.943189,835.6776733398438,772.8204956054688,827.6190185546875,861.062255859375,752.6740112304688
2024-01-08 17:28:03.948144,859.4505615234375,775.2380981445312,824.3956298828125,846.959716796875,766.7765502929688
2024-01-08 17:28:03.957112,819.5604248046875,768.3883056640625,829.2307739257812,840.10986328125,799.4139404296875
2024-01-08 17:28:03.957221,866.7033081054688,780.4761962890625,826.8131713867188,859.047607421875,854.6153564453125
2024-01-08 17:28:03.957294,835.6776733398438,768.3883056640625,834.06591796875,867.912109375,832.8571166992188
2024-01-08 17:28:03.957700,860.2564086914062,765.1648559570312,823.5897216796875,880.4029541015625,1039.96337890625
2024-01-08 17:28:03.957888,816.3369750976562,759.120849609375,824.3956298828125,870.7326049804688,917.87548828125
2024-01-08 17:28:03.963017,822.7838745117188,761.1355590820312,825.6043701171875,809.89013671875,723.2600708007812
2024-01-08 17:28:03.965544,855.8241577148438,778.05859375,830.03662109375,850.989013671875,930.7692260742188
2024-01-08 17:28:03.965683,844.945068359375,774.8351440429688,831.6483764648438,857.4359130859375,765.1648559570312
2024-01-08 17:28:03.977729,837.2893676757812,761.94140625,821.1721801757812,869.9267578125,873.9560546875
2024-01-08 17:28:03.977843,796.996337890625,758.3150024414062,824.7985229492188,827.2161254882812,899.3406372070312
2024-01-08 17:28:03.977918,829.2307739257812,759.5238037109375,824.3956298828125,848.1685180664062,644.2857055664062
2024-01-08 17:28:03.979894,834.8717651367188,763.1502075195312,828.4249267578125,857.8388061523438,819.5604248046875
2024-01-08 17:28:04.023944,811.098876953125,752.2710571289062,826.00732421875,828.4249267578125,885.6410522460938
2024-01-08 17:28:04.027158,821.5750732421875,757.5091552734375,826.4102783203125,851.7948608398438,819.96337890625
2024-01-08 17:28:04.039719,801.4285888671875,747.8388061523438,821.5750732421875,813.91943359375,894.5054931640625
2024-01-08 17:28:04.043192,802.6373901367188,746.2271118164062,821.97802734375,819.5604248046875,779.2673950195312
2024-01-08 17:28:04.050185,828.8278198242188,752.2710571289062,825.6043701171875,845.7509155273438,733.3333129882812
2024-01-08 17:28:04.056573,853.4066162109375,759.5238037109375,824.3956298828125,851.7948608398438,800.2197875976562
2024-01-08 17:28:04.059111,843.3333129882812,762.3442993164062,823.1868286132812,858.2417602539062,900.5494384765625
2024-01-08 17:28:04.063585,823.5897216796875,755.091552734375,822.3809814453125,842.930419921875,775.2380981445312
2024-01-08 17:28:04.080129,824.3956298828125,754.2857055664062,824.3956298828125,858.6447143554688,630.5860595703125
2024-01-08 17:28:04.082951,854.6153564453125,762.3442993164062,828.8278198242188,898.5347900390625,898.937744140625
2024-01-08 17:28:04.085538,850.5860595703125,767.1795043945312,823.5897216796875,876.3735961914062,1162.857177734375
2024-01-08 17:28:04.095809,831.6483764648438,765.5677490234375,824.3956298828125,834.4688720703125,928.7545776367188
2024-01-08 17:28:04.107688,830.8424682617188,760.7326049804688,827.2161254882812,832.4542236328125,744.2124633789062
2024-01-08 17:28:04.108637,831.6483764648438,757.912109375,826.00732421875,868.7179565429688,750.6593627929688
2024-01-08 17:28:04.112887,838.901123046875,756.3003540039062,824.3956298828125,875.1648559570312,712.3809814453125
2024-01-08 17:28:04.120375,841.3186645507812,748.6447143554688,826.4102783203125,832.4542236328125,591.098876953125
2024-01-08 17:28:04.132283,848.5714111328125,748.2417602539062,832.4542236328125,828.02197265625,647.106201171875
2024-01-08 17:28:04.133379,832.8571166992188,751.4652099609375,833.2600708007812,838.09521484375,777.6557006835938
2024-01-08 17:28:04.143195,821.5750732421875,749.8534545898438,831.6483764648438,847.7655639648438,663.2234497070312
2024-01-08 17:28:04.146200,827.2161254882812,756.7033081054688,826.8131713867188,854.2124633789062,562.087890625
2024-01-08 17:28:04.150565,823.99267578125,761.1355590820312,821.5750732421875,846.1538696289062,758.7179565429688
2024-01-08 17:28:04.154488,821.1721801757812,755.091552734375,822.7838745117188,840.915771484375,873.9560546875
2024-01-08 17:28:04.166464,810.2930297851562,749.4505615234375,823.5897216796875,827.6190185546875,625.7509155273438
2024-01-08 17:28:04.167615,809.89013671875,748.6447143554688,823.99267578125,824.7985229492188,544.7619018554688
2024-01-08 17:28:04.182961,827.6190185546875,753.8828125,823.99267578125,837.6923217773438,791.3552856445312
2024-01-08 17:28:04.183884,844.1392211914062,753.076904296875,826.4102783203125,846.959716796875,1064.5421142578125
2024-01-08 17:28:04.188621,859.4505615234375,748.6447143554688,828.02197265625,851.7948608398438,965.018310546875
2024-01-08 17:28:04.205838,869.120849609375,749.4505615234375,829.2307739257812,854.2124633789062,848.1685180664062
2024-01-08 17:28:04.206691,856.2271118164062,757.912109375,829.6337280273438,845.7509155273438,827.6190185546875
2024-01-08 17:28:04.213834,830.03662109375,759.5238037109375,829.6337280273438,844.1392211914062,770.8058471679688
2024-01-08 17:28:04.218531,837.6923217773438,754.6886596679688,834.8717651367188,867.106201171875,815.93408203125
2024-01-08 17:28:04.223379,870.7326049804688,756.3003540039062,840.5128173828125,884.8351440429688,833.2600708007812
2024-01-08 17:28:04.236314,867.912109375,763.1502075195312,837.6923217773438,872.7472534179688,936.8131713867188
2024-01-08 17:28:04.243423,828.4249267578125,761.5384521484375,830.03662109375,845.3479614257812,988.3883056640625
2024-01-08 17:28:04.244440,841.3186645507812,762.7472534179688,826.00732421875,819.96337890625,804.6520385742188
2024-01-08 17:28:04.251521,871.94140625,766.3735961914062,827.2161254882812,838.4981689453125,808.2783813476562
2024-01-08 17:28:04.266641,864.6886596679688,764.3589477539062,829.2307739257812,855.018310546875,989.5970458984375
2024-01-08 17:28:04.269611,860.6593627929688,760.7326049804688,830.03662109375,845.3479614257812,896.923095703125
2024-01-08 17:28:04.273721,871.94140625,760.3296508789062,832.4542236328125,842.930419921875,704.7252807617188
2024-01-08 17:28:04.281595,875.5677490234375,767.1795043945312,834.4688720703125,871.5384521484375,716.00732421875
2024-01-08 17:28:04.284647,856.6300659179688,765.1648559570312,830.8424682617188,873.1502075195312,734.5421142578125
2024-01-08 17:28:04.289241,859.4505615234375,760.3296508789062,830.8424682617188,829.6337280273438,791.3552856445312
2024-01-08 17:28:04.297391,851.7948608398438,753.4798583984375,836.4835205078125,835.2747192382812,788.5347900390625
2024-01-08 17:28:04.311141,834.8717651367188,753.076904296875,835.6776733398438,853.4066162109375,758.3150024414062
2024-01-08 17:28:04.315162,831.2454223632812,761.1355590820312,829.2307739257812,840.5128173828125,993.2234497070312
2024-01-08 17:28:04.321215,836.886474609375,755.4945068359375,820.3662719726562,837.6923217773438,938.02197265625
2024-01-08 17:28:04.329927,852.6007080078125,753.4798583984375,824.3956298828125,857.4359130859375,836.4835205078125
2024-01-08 17:28:04.333117,872.3442993164062,757.106201171875,828.02197265625,861.8681030273438,1003.2966918945312
2024-01-08 17:28:04.349592,865.4945068359375,756.3003540039062,824.3956298828125,851.3919677734375,867.5091552734375
2024-01-08 17:28:04.350158,843.7362670898438,760.7326049804688,823.99267578125,860.6593627929688,750.2564086914062
2024-01-08 17:28:04.352741,853.4066162109375,757.106201171875,826.00732421875,862.2710571289062,851.7948608398438
2024-01-08 17:28:04.365067,882.8204956054688,749.4505615234375,831.2454223632812,866.7033081054688,956.1538696289062
2024-01-08 17:28:04.373073,874.7619018554688,751.4652099609375,833.2600708007812,882.4176025390625,977.5091552734375
2024-01-08 17:28:04.387071,863.8828125,753.8828125,839.3040161132812,868.3150024414062,844.1392211914062
2024-01-08 17:28:04.387970,855.018310546875,754.6886596679688,834.8717651367188,838.4981689453125,761.1355590820312
2024-01-08 17:28:04.396958,857.4359130859375,754.2857055664062,827.2161254882812,839.3040161132812,855.4212646484375
2024-01-08 17:28:04.402826,877.1795043945312,757.5091552734375,832.8571166992188,847.7655639648438,1005.3113403320312
2024-01-08 17:28:04.409922,867.912109375,759.9267578125,831.6483764648438,847.3626098632812,868.7179565429688
2024-01-08 17:28:04.416546,850.1831665039062,759.5238037109375,827.6190185546875,841.7216186523438,692.2344360351562
2024-01-08 17:28:04.423864,848.5714111328125,762.7472534179688,826.8131713867188,851.3919677734375,803.4432373046875
2024-01-08 17:28:04.434823,854.6153564453125,759.9267578125,822.3809814453125,853.8095092773438,785.3113403320312
2024-01-08 17:28:04.438713,860.2564086914062,753.4798583984375,825.6043701171875,862.2710571289062,679.3406372070312
2024-01-08 17:28:04.448552,854.2124633789062,752.2710571289062,834.06591796875,859.4505615234375,716.4102783203125
2024-01-08 17:28:04.449816,844.945068359375,753.076904296875,831.2454223632812,865.8974609375,796.5933837890625
2024-01-08 17:28:04.450274,848.974365234375,753.4798583984375,821.5750732421875,848.974365234375,757.5091552734375
2024-01-08 17:28:04.451236,837.6923217773438,753.8828125,817.5457763671875,824.7985229492188,754.2857055664062
2024-01-08 17:28:04.452104,835.6776733398438,757.5091552734375,818.7545776367188,832.8571166992188,858.6447143554688
2024-01-08 17:28:04.452914,857.8388061523438,755.4945068359375,817.1428833007812,831.2454223632812,1062.12451171875
2024-01-08 17:28:04.453474,855.018310546875,744.6153564453125,816.7399291992188,829.6337280273438,954.945068359375
2024-01-08 17:28:04.454297,836.886474609375,753.8828125,815.5311279296875,808.2783813476562,722.4542236328125
2024-01-08 17:28:04.455179,863.076904296875,761.94140625,815.1282348632812,807.4725341796875,748.2417602539062
2024-01-08 17:28:04.456078,895.7142944335938,753.8828125,821.1721801757812,832.8571166992188,746.6300659179688
2024-01-08 17:28:04.459055,867.5091552734375,752.6740112304688,823.1868286132812,844.945068359375,667.2527465820312
2024-01-08 17:28:04.459590,831.6483764648438,753.8828125,820.3662719726562,828.4249267578125,657.9853515625
2024-01-08 17:28:04.460086,830.03662109375,755.8974609375,815.5311279296875,817.94873046875,811.90478515625
2024-01-08 17:28:04.460602,838.901123046875,753.4798583984375,812.3076782226562,821.5750732421875,853.003662109375
2024-01-08 17:28:04.461393,847.7655639648438,746.6300659179688,814.3223266601562,833.2600708007812,731.7216186523438
2024-01-08 17:28:04.461950,862.6740112304688,740.989013671875,815.93408203125,845.3479614257812,839.3040161132812
2024-01-08 17:28:04.462469,882.4176025390625,740.989013671875,822.3809814453125,855.4212646484375,1089.9267578125
2024-01-08 17:28:04.465473,868.3150024414062,741.7948608398438,826.8131713867188,865.091552734375,1089.9267578125
2024-01-08 17:28:04.466119,837.2893676757812,745.4212646484375,816.7399291992188,844.5421142578125,666.4468994140625
2024-01-08 17:28:04.466742,850.5860595703125,755.091552734375,813.113525390625,830.4395751953125,591.90478515625
2024-01-08 17:28:04.467302,860.6593627929688,753.8828125,811.5018310546875,842.5274658203125,819.1575317382812
2024-01-08 17:28:04.467827,845.3479614257812,747.4359130859375,813.5164794921875,841.7216186523438,720.4395751953125
2024-01-08 17:28:04.470341,842.5274658203125,749.4505615234375,815.5311279296875,821.1721801757812,625.3479614257812
2024-01-08 17:28:04.470964,840.5128173828125,755.4945068359375,811.5018310546875,797.8021850585938,643.4798583984375
2024-01-08 17:28:04.471507,828.8278198242188,755.8974609375,812.7106323242188,807.4725341796875,784.5054931640625
2024-01-08 17:28:04.471973,849.3773193359375,751.062255859375,811.098876953125,829.6337280273438,856.2271118164062
2024-01-08 17:28:04.472639,846.5567626953125,747.8388061523438,808.6813354492188,838.09521484375,934.3956298828125
2024-01-08 17:28:04.473114,823.1868286132812,756.7033081054688,806.6666870117188,836.08056640625,1026.6666259765625
2024-01-08 17:28:04.473570,844.945068359375,757.912109375,811.5018310546875,832.4542236328125,1086.3004150390625
2024-01-08 17:28:04.474014,842.930419921875,751.062255859375,813.5164794921875,826.8131713867188,915.4578857421875
2024-01-08 17:28:04.474463,848.5714111328125,748.6447143554688,808.6813354492188,822.3809814453125,697.87548828125
2024-01-08 17:28:04.474987,862.2710571289062,753.8828125,812.7106323242188,848.1685180664062,782.087890625
2024-01-08 17:28:04.475471,855.8241577148438,755.4945068359375,813.5164794921875,853.4066162109375,844.5421142578125
2024-01-08 17:28:04.475966,837.6923217773438,755.091552734375,809.89013671875,828.4249267578125,648.7179565429688
2024-01-08 17:28:04.478395,814.7252807617188,752.6740112304688,811.90478515625,823.1868286132812,531.062255859375
2024-01-08 17:28:04.478985,818.3516235351562,747.8388061523438,818.3516235351562,816.7399291992188,616.4835205078125
2024-01-08 17:28:04.479507,817.5457763671875,754.2857055664062,817.5457763671875,819.96337890625,752.2710571289062
2024-01-08 17:28:04.480007,810.2930297851562,758.7179565429688,808.6813354492188,828.02197265625,766.7765502929688
2024-01-08 17:28:04.480986,811.098876953125,749.8534545898438,810.6959838867188,823.1868286132812,705.93408203125
2024-01-08 17:28:04.481757,826.00732421875,754.6886596679688,811.098876953125,814.3223266601562,809.4871826171875
2024-01-08 17:28:04.482302,836.4835205078125,762.3442993164062,799.4139404296875,829.6337280273438,874.3589477539062
2024-01-08 17:28:04.482808,839.3040161132812,756.3003540039062,802.6373901367188,835.2747192382812,685.7875366210938
2024-01-08 17:28:04.483288,824.7985229492188,749.4505615234375,810.6959838867188,831.2454223632812,648.7179565429688
2024-01-08 17:28:04.486270,822.7838745117188,747.4359130859375,814.3223266601562,850.1831665039062,698.2783813476562
2024-01-08 17:28:04.486921,837.6923217773438,744.2124633789062,817.94873046875,828.4249267578125,733.3333129882812
2024-01-08 17:28:04.487481,834.4688720703125,748.2417602539062,811.098876953125,805.4578857421875,753.076904296875
2024-01-08 17:28:04.489995,835.6776733398438,754.2857055664062,805.4578857421875,821.97802734375,858.6447143554688
2024-01-08 17:28:04.490572,838.901123046875,755.4945068359375,806.2637329101562,838.09521484375,1013.3699340820312
2024-01-08 17:28:04.491182,811.098876953125,747.4359130859375,812.7106323242188,836.4835205078125,876.3735961914062
2024-01-08 17:28:04.491661,821.1721801757812,744.6153564453125,815.5311279296875,820.7692260742188,709.96337890625
2024-01-08 17:28:04.492328,845.3479614257812,750.2564086914062,815.1282348632812,812.7106323242188,808.2783813476562
2024-01-08 17:28:04.492835,845.7509155273438,756.3003540039062,814.3223266601562,850.5860595703125,1010.952392578125
2024-01-08 17:28:04.493315,848.1685180664062,763.5531005859375,811.098876953125,848.5714111328125,956.5567626953125
2024-01-08 17:28:04.493807,846.5567626953125,757.912109375,815.93408203125,826.8131713867188,788.5347900390625
2024-01-08 17:28:04.494286,846.959716796875,755.4945068359375,817.5457763671875,834.4688720703125,820.3662719726562
2024-01-08 17:28:04.494986,850.989013671875,756.3003540039062,813.5164794921875,847.3626098632812,1055.2747802734375
2024-01-08 17:28:04.495582,834.4688720703125,753.4798583984375,810.6959838867188,826.00732421875,1049.6336669921875
2024-01-08 17:28:04.496097,835.6776733398438,765.5677490234375,805.054931640625,815.93408203125,933.1868286132812
2024-01-08 17:28:04.496570,825.2014770507812,769.1941528320312,801.025634765625,816.7399291992188,824.7985229492188
2024-01-08 17:28:04.497004,836.886474609375,761.94140625,803.8461303710938,807.069580078125,656.7765502929688
2024-01-08 17:28:04.497450,837.6923217773438,762.7472534179688,811.098876953125,826.4102783203125,738.1685180664062
2024-01-08 17:28:04.497935,823.99267578125,752.2710571289062,814.7252807617188,844.1392211914062,866.3003540039062
2024-01-08 17:28:04.498993,814.7252807617188,751.062255859375,814.3223266601562,861.062255859375,819.5604248046875
2024-01-08 17:28:04.499683,817.5457763671875,756.7033081054688,814.3223266601562,819.96337890625,741.7948608398438
2024-01-08 17:28:04.500315,783.6996459960938,762.7472534179688,810.6959838867188,773.6264038085938,651.5384521484375
2024-01-08 17:28:04.501053,784.1025390625,771.2088012695312,805.8607788085938,788.937744140625,626.1538696289062
2024-01-08 17:28:04.501559,855.4212646484375,763.1502075195312,811.90478515625,821.5750732421875,782.4908447265625
2024-01-08 17:28:04.502023,813.5164794921875,751.062255859375,815.1282348632812,811.5018310546875,914.2490844726562
2024-01-08 17:28:04.502521,743.003662109375,751.062255859375,809.4871826171875,807.87548828125,641.8681030273438
2024-01-08 17:28:05.034269,816.3369750976562,741.3919677734375,816.7399291992188,835.6776733398438,583.8461303710938
2024-01-08 17:28:05.046429,864.2857055664062,759.5238037109375,824.7985229492188,825.6043701171875,762.3442993164062
2024-01-08 17:28:05.046902,830.03662109375,760.7326049804688,814.7252807617188,813.5164794921875,818.7545776367188
2024-01-08 17:28:05.047306,841.7216186523438,756.7033081054688,810.6959838867188,810.2930297851562,771.6116943359375
2024-01-08 17:28:05.047685,802.6373901367188,770.0,816.7399291992188,798.2051391601562,749.047607421875
2024-01-08 17:28:05.048227,808.6813354492188,753.8828125,827.2161254882812,788.937744140625,805.4578857421875
2024-01-08 17:28:05.048918,878.3883056640625,749.8534545898438,813.5164794921875,806.6666870117188,745.4212646484375
2024-01-08 17:28:05.086918,861.4652099609375,775.6410522460938,805.8607788085938,824.7985229492188,701.5018310546875
2024-01-08 17:28:05.101277,855.4212646484375,767.1795043945312,816.7399291992188,815.93408203125,762.7472534179688
2024-01-08 17:28:05.105351,869.120849609375,754.6886596679688,819.5604248046875,817.1428833007812,827.6190185546875
2024-01-08 17:28:05.109580,826.00732421875,767.9853515625,810.6959838867188,819.96337890625,659.5970458984375
2024-01-08 17:28:05.123895,823.5897216796875,775.2380981445312,813.91943359375,804.6520385742188,657.9853515625
2024-01-08 17:28:05.132629,865.091552734375,776.0439453125,811.5018310546875,796.5933837890625,846.959716796875
2024-01-08 17:28:05.151139,842.12451171875,753.076904296875,814.7252807617188,795.3846435546875,1013.7728881835938
2024-01-08 17:28:05.155076,831.6483764648438,755.8974609375,822.7838745117188,796.1904907226562,928.3516235351562
2024-01-08 17:28:05.161381,854.6153564453125,766.7765502929688,825.2014770507812,818.7545776367188,876.3735961914062
2024-01-08 17:28:05.165497,879.1941528320312,762.7472534179688,817.1428833007812,826.8131713867188,891.6849975585938
2024-01-08 17:28:05.181693,840.10986328125,765.970703125,823.1868286132812,763.9560546875,886.0439453125
2024-01-08 17:28:05.187826,836.886474609375,761.5384521484375,820.3662719726562,766.7765502929688,964.6153564453125
2024-01-08 17:28:05.193727,821.5750732421875,761.1355590820312,818.3516235351562,821.1721801757812,846.5567626953125
2024-01-08 17:28:05.203072,843.3333129882812,771.6116943359375,821.5750732421875,828.8278198242188,703.113525390625
2024-01-08 17:28:05.210511,863.076904296875,767.1795043945312,821.97802734375,811.5018310546875,722.4542236328125
2024-01-08 17:28:05.224923,838.901123046875,761.5384521484375,820.7692260742188,819.1575317382812,916.6666870117188
2024-01-08 17:28:05.228156,863.8828125,759.5238037109375,830.4395751953125,837.2893676757812,1046.00732421875
2024-01-08 17:28:05.232428,869.9267578125,758.7179565429688,835.6776733398438,838.4981689453125,811.90478515625
2024-01-08 17:28:05.235715,852.6007080078125,778.8644409179688,817.94873046875,828.4249267578125,735.3479614257812
2024-01-08 17:28:05.257588,884.4322509765625,774.029296875,811.5018310546875,840.5128173828125,827.6190185546875
2024-01-08 17:28:05.266674,885.2380981445312,755.091552734375,819.5604248046875,827.2161254882812,924.3223266601562
2024-01-08 17:28:05.270778,865.4945068359375,770.4029541015625,821.1721801757812,806.6666870117188,936.4102783203125
2024-01-08 17:28:05.278834,866.3003540039062,760.3296508789062,814.7252807617188,829.6337280273438,850.1831665039062
2024-01-08 17:28:05.289921,866.7033081054688,751.4652099609375,815.5311279296875,846.959716796875,947.2893676757812
2024-01-08 17:28:05.309495,863.076904296875,757.106201171875,823.1868286132812,815.93408203125,918.6813354492188
2024-01-08 17:28:05.311780,873.9560546875,761.5384521484375,821.97802734375,806.2637329101562,664.4322509765625
2024-01-08 17:28:05.318757,867.106201171875,770.4029541015625,818.7545776367188,823.5897216796875,724.4688720703125
2024-01-08 17:28:05.324400,837.2893676757812,765.970703125,820.3662719726562,832.8571166992188,1038.754638671875
2024-01-08 17:28:05.336537,840.10986328125,747.4359130859375,818.7545776367188,823.99267578125,986.3735961914062
2024-01-08 17:28:05.343922,854.2124633789062,752.2710571289062,826.4102783203125,813.5164794921875,765.1648559570312
2024-01-08 17:28:05.355395,863.8828125,766.7765502929688,821.5750732421875,817.1428833007812,823.1868286132812
2024-01-08 17:28:05.365278,878.3883056640625,757.5091552734375,813.91943359375,846.5567626953125,863.8828125
2024-01-08 17:28:05.370573,853.003662109375,755.8974609375,819.1575317382812,831.2454223632812,720.8424682617188
2024-01-08 17:28:05.390414,834.06591796875,754.6886596679688,823.5897216796875,830.4395751953125,579.010986328125
2024-01-08 17:28:05.392968,856.2271118164062,754.6886596679688,825.6043701171875,821.1721801757812,616.08056640625
2024-01-08 17:28:05.397032,873.9560546875,763.9560546875,821.5750732421875,799.010986328125,709.1575317382812
2024-01-08 17:28:05.404515,888.4615478515625,768.3883056640625,816.7399291992188,820.3662719726562,703.113525390625
2024-01-08 17:28:05.405483,840.915771484375,772.0146484375,813.91943359375,813.91943359375,791.7582397460938
2024-01-08 17:28:05.422779,851.3919677734375,752.2710571289062,817.1428833007812,835.6776733398438,997.2527465820312
2024-01-08 17:28:05.430449,897.7289428710938,746.2271118164062,827.6190185546875,861.8681030273438,936.4102783203125
2024-01-08 17:28:05.447611,893.2966918945312,767.9853515625,826.4102783203125,852.1978149414062,726.4835205078125
2024-01-08 17:28:05.454755,881.2088012695312,774.4322509765625,819.96337890625,835.2747192382812,701.90478515625
2024-01-08 17:28:05.457640,872.3442993164062,768.7911987304688,826.00732421875,826.4102783203125,908.6080322265625
2024-01-08 17:28:05.465274,853.8095092773438,761.1355590820312,827.2161254882812,829.6337280273438,1148.3516845703125
2024-01-08 17:28:05.479761,866.7033081054688,753.8828125,826.00732421875,839.3040161132812,953.3333129882812
2024-01-08 17:28:05.507940,880.0,762.7472534179688,825.2014770507812,843.7362670898438,830.03662109375
2024-01-08 17:28:05.510704,865.091552734375,764.3589477539062,827.6190185546875,833.2600708007812,802.6373901367188
2024-01-08 17:28:05.520033,865.091552734375,757.5091552734375,824.3956298828125,811.5018310546875,695.4578857421875
2024-01-08 17:28:05.524219,870.3296508789062,761.94140625,817.1428833007812,817.1428833007812,643.076904296875
2024-01-08 17:28:05.536434,861.062255859375,767.5823974609375,818.7545776367188,813.5164794921875,715.6043701171875
2024-01-08 17:28:05.566026,869.9267578125,751.4652099609375,815.93408203125,813.91943359375,818.3516235351562
2024-01-08 17:28:05.568880,847.3626098632812,753.8828125,813.5164794921875,815.93408203125,864.6886596679688
2024-01-08 17:28:05.569997,835.2747192382812,758.7179565429688,816.7399291992188,822.7838745117188,784.5054931640625
2024-01-08 17:28:05.584725,840.915771484375,761.1355590820312,816.7399291992188,821.97802734375,658.3883056640625
2024-01-08 17:28:05.603643,832.05126953125,767.1795043945312,812.7106323242188,811.90478515625,890.0732421875
2024-01-08 17:28:05.607676,856.2271118164062,749.4505615234375,817.1428833007812,842.12451171875,805.4578857421875
2024-01-08 17:28:05.618252,873.1502075195312,757.106201171875,828.02197265625,844.1392211914062,606.4102783203125
2024-01-08 17:28:05.641420,827.2161254882812,771.6116943359375,826.4102783203125,793.7728881835938,857.032958984375
2024-01-08 17:28:05.641935,829.6337280273438,751.4652099609375,826.8131713867188,787.7289428710938,951.7216186523438
2024-01-08 17:28:05.644918,858.6447143554688,759.120849609375,823.5897216796875,799.4139404296875,784.5054931640625
2024-01-08 17:28:05.652374,854.2124633789062,773.2234497070312,817.94873046875,795.3846435546875,743.003662109375
2024-01-08 17:28:05.669055,854.2124633789062,766.3735961914062,822.7838745117188,817.5457763671875,812.7106323242188
2024-01-08 17:28:05.679777,850.5860595703125,749.047607421875,819.5604248046875,821.5750732421875,792.1611938476562
2024-01-08 17:28:05.684552,845.7509155273438,753.8828125,811.5018310546875,800.2197875976562,670.879150390625
2024-01-08 17:28:05.706453,839.7069702148438,757.106201171875,811.098876953125,805.4578857421875,753.8828125
2024-01-08 17:28:05.714015,853.003662109375,747.4359130859375,814.3223266601562,831.6483764648438,980.3296508789062
2024-01-08 17:28:05.722133,851.7948608398438,746.6300659179688,817.1428833007812,824.7985229492188,932.7838745117188
2024-01-08 17:28:05.724676,846.5567626953125,756.3003540039062,814.7252807617188,794.1758422851562,707.94873046875
2024-01-08 17:28:05.748090,824.7985229492188,752.6740112304688,812.7106323242188,782.087890625,778.4615478515625
2024-01-08 17:28:05.765340,836.886474609375,746.2271118164062,813.113525390625,830.03662109375,887.2527465820312
2024-01-08 17:28:05.766261,868.7179565429688,757.912109375,810.2930297851562,838.09521484375,745.8241577148438
2024-01-08 17:28:05.775903,829.6337280273438,769.1941528320312,806.2637329101562,795.3846435546875,709.5604248046875
2024-01-08 17:28:05.781567,821.1721801757812,754.6886596679688,812.3076782226562,773.2234497070312,809.084228515625
2024-01-08 17:28:05.791047,845.7509155273438,749.047607421875,817.1428833007812,756.7033081054688,815.1282348632812
2024-01-08 17:28:05.802563,814.7252807617188,749.4505615234375,812.7106323242188,785.3113403320312,929.5604248046875
2024-01-08 17:28:05.812711,765.1648559570312,746.2271118164062,817.5457763671875,817.94873046875,926.3369750976562
2024-01-08 17:28:05.847196,814.7252807617188,745.8241577148438,821.97802734375,823.5897216796875,809.4871826171875
2024-01-08 17:28:05.848755,849.7802124023438,743.8095092773438,822.7838745117188,806.6666870117188,1100.0
2024-01-08 17:28:05.854677,840.5128173828125,748.2417602539062,820.7692260742188,796.5933837890625,1107.6556396484375
2024-01-08 17:28:05.877218,833.2600708007812,756.3003540039062,819.1575317382812,784.5054931640625,846.1538696289062
2024-01-08 17:28:05.880886,848.5714111328125,749.4505615234375,826.00732421875,776.4468994140625,836.886474609375
2024-01-08 17:28:05.905596,848.974365234375,745.018310546875,830.03662109375,829.2307739257812,775.2380981445312
2024-01-08 17:28:05.911282,840.10986328125,764.3589477539062,824.3956298828125,836.08056640625,739.3773193359375
2024-01-08 17:28:05.919132,840.10986328125,770.8058471679688,816.3369750976562,814.3223266601562,743.003662109375
2024-01-08 17:28:05.927351,834.06591796875,761.5384521484375,814.7252807617188,841.3186645507812,732.5274658203125
2024-01-08 17:28:05.936705,816.7399291992188,760.7326049804688,818.3516235351562,842.12451171875,734.5421142578125
2024-01-08 17:28:05.948524,826.4102783203125,753.8828125,828.02197265625,850.5860595703125,724.8717651367188
2024-01-08 17:28:05.958562,857.8388061523438,752.6740112304688,832.8571166992188,856.2271118164062,734.945068359375
2024-01-08 17:28:05.968745,842.5274658203125,754.2857055664062,829.6337280273438,839.3040161132812,913.4432373046875
2024-01-08 17:28:05.978769,817.5457763671875,757.5091552734375,819.5604248046875,801.4285888671875,1040.769287109375
2024-01-08 17:28:05.989801,830.8424682617188,762.7472534179688,819.1575317382812,794.981689453125,846.5567626953125
2024-01-08 17:28:06.002544,831.2454223632812,755.4945068359375,821.97802734375,849.7802124023438,754.2857055664062
2024-01-08 17:28:06.010374,845.7509155273438,754.6886596679688,817.5457763671875,842.930419921875,881.2088012695312
2024-01-08 17:28:06.021857,846.959716796875,756.3003540039062,821.1721801757812,813.113525390625,783.2966918945312
2024-01-08 17:28:06.027348,816.3369750976562,752.6740112304688,822.7838745117188,848.1685180664062,613.6630249023438
2024-01-08 17:28:06.034552,806.6666870117188,758.3150024414062,817.1428833007812,867.5091552734375,786.923095703125
2024-01-08 17:28:06.052171,835.6776733398438,750.6593627929688,813.5164794921875,826.8131713867188,899.7435913085938
2024-01-08 17:28:06.065095,849.7802124023438,738.974365234375,814.3223266601562,788.1318969726562,876.7765502929688
2024-01-08 17:28:06.074326,831.2454223632812,736.959716796875,812.3076782226562,789.7435913085938,776.8497924804688
2024-01-08 17:28:06.088265,828.02197265625,749.4505615234375,815.5311279296875,824.7985229492188,809.084228515625
2024-01-08 17:28:06.092303,831.2454223632812,749.8534545898438,824.3956298828125,821.5750732421875,1054.871826171875
2024-01-08 17:28:06.110694,832.05126953125,746.6300659179688,825.6043701171875,788.1318969726562,924.7252807617188
2024-01-08 17:28:06.138359,819.5604248046875,751.4652099609375,821.1721801757812,793.3699340820312,683.7728881835938
2024-01-08 17:28:06.141331,818.7545776367188,754.2857055664062,816.7399291992188,803.4432373046875,674.908447265625
2024-01-08 17:28:06.150770,842.930419921875,755.4945068359375,817.94873046875,809.89013671875,695.4578857421875
2024-01-08 17:28:06.170780,842.12451171875,751.4652099609375,814.3223266601562,821.1721801757812,593.91943359375
2024-01-08 17:28:06.171397,852.6007080078125,753.076904296875,816.3369750976562,809.4871826171875,571.7582397460938
2024-01-08 17:28:06.179629,872.7472534179688,752.6740112304688,824.3956298828125,822.3809814453125,712.3809814453125
2024-01-08 17:28:06.188590,859.047607421875,749.4505615234375,824.7985229492188,827.2161254882812,823.99267578125
2024-01-08 17:28:06.201743,835.2747192382812,753.4798583984375,813.5164794921875,818.7545776367188,732.5274658203125
2024-01-08 17:28:06.205752,840.5128173828125,753.4798583984375,816.7399291992188,829.2307739257812,763.1502075195312
2024-01-08 17:28:06.220612,850.1831665039062,756.3003540039062,818.3516235351562,798.6080322265625,917.87548828125
2024-01-08 17:28:06.230472,826.00732421875,749.047607421875,815.1282348632812,773.2234497070312,934.7985229492188
2024-01-08 17:28:06.241776,838.901123046875,742.1978149414062,815.93408203125,815.5311279296875,809.89013671875
2024-01-08 17:28:06.251253,871.94140625,749.047607421875,812.7106323242188,838.4981689453125,704.7252807617188
2024-01-08 17:28:06.258544,952.5274658203125,750.2564086914062,824.7985229492188,849.7802124023438,740.1831665039062
2024-01-08 17:28:06.267752,957.3626098632812,755.4945068359375,818.3516235351562,842.5274658203125,804.2490844726562
2024-01-08 17:28:06.275003,966.6300659179688,759.9267578125,813.113525390625,848.974365234375,960.989013671875
2024-01-08 17:28:06.277436,947.6923217773438,759.5238037109375,815.93408203125,859.8534545898438,933.5897216796875
2024-01-08 17:28:06.297321,943.2600708007812,754.2857055664062,821.97802734375,863.8828125,735.3479614257812
2024-01-08 17:28:06.314404,959.3773193359375,751.062255859375,825.2014770507812,855.018310546875,846.5567626953125
2024-01-08 17:28:06.320817,968.2417602539062,754.2857055664062,821.97802734375,867.106201171875,1186.22705078125
2024-01-08 17:28:06.334838,946.08056640625,755.8974609375,822.3809814453125,857.032958984375,1037.94873046875
2024-01-08 17:28:06.354167,938.4249267578125,760.7326049804688,823.1868286132812,820.7692260742188,720.4395751953125
2024-01-08 17:28:06.365802,925.93408203125,758.3150024414062,825.2014770507812,825.2014770507812,819.1575317382812
2024-01-08 17:28:06.370358,920.2930297851562,754.6886596679688,830.4395751953125,843.3333129882812,1116.5201416015625
2024-01-08 17:28:06.385235,937.6190185546875,752.6740112304688,829.2307739257812,848.1685180664062,1014.981689453125
2024-01-08 17:28:06.409168,947.6923217773438,753.4798583984375,825.6043701171875,839.3040161132812,847.3626098632812
2024-01-08 17:28:06.409680,940.03662109375,758.7179565429688,833.6630249023438,827.6190185546875,841.3186645507812
2024-01-08 17:28:06.412302,920.2930297851562,758.7179565429688,838.901123046875,839.3040161132812,905.7875366210938
2024-01-08 17:28:06.423519,917.4725341796875,755.091552734375,832.8571166992188,856.6300659179688,778.4615478515625
2024-01-08 17:28:06.442230,923.5164794921875,752.2710571289062,832.4542236328125,856.2271118164062,742.1978149414062
2024-01-08 17:28:06.448451,923.113525390625,753.076904296875,834.8717651367188,846.959716796875,985.5677490234375
2024-01-08 17:28:06.453046,933.5897216796875,755.4945068359375,836.886474609375,846.959716796875,1003.2966918945312
2024-01-08 17:28:06.488615,919.084228515625,757.106201171875,837.2893676757812,854.2124633789062,882.8204956054688
2024-01-08 17:28:06.492401,909.4139404296875,755.091552734375,834.06591796875,847.3626098632812,784.908447265625
2024-01-08 17:28:06.500479,926.7399291992188,759.120849609375,832.4542236328125,832.05126953125,885.2380981445312
2024-01-08 17:28:06.505185,940.03662109375,754.2857055664062,834.8717651367188,813.91943359375,1077.032958984375
2024-01-08 17:28:06.510922,933.1868286132812,751.8681030273438,835.6776733398438,802.2344360351562,888.4615478515625
2024-01-08 17:28:06.546390,906.1904907226562,758.7179565429688,838.09521484375,826.00732421875,740.5860595703125
2024-01-08 17:28:06.548729,911.4285888671875,763.1502075195312,843.7362670898438,839.7069702148438,773.2234497070312
2024-01-08 17:28:06.553060,919.89013671875,765.970703125,843.3333129882812,828.4249267578125,762.3442993164062
2024-01-08 17:28:06.564153,917.069580078125,769.1941528320312,840.915771484375,828.02197265625,641.8681030273438
2024-01-08 17:28:06.573225,923.91943359375,769.1941528320312,843.7362670898438,853.8095092773438,670.879150390625
2024-01-08 17:28:06.584270,923.91943359375,768.3883056640625,847.3626098632812,875.5677490234375,791.7582397460938
2024-01-08 17:28:06.612094,903.7728881835938,762.7472534179688,847.7655639648438,851.7948608398438,789.3406372070312
2024-01-08 17:28:06.618566,896.923095703125,756.7033081054688,848.5714111328125,835.2747192382812,793.3699340820312
2024-01-08 17:28:06.627263,914.6520385742188,764.3589477539062,848.1685180664062,853.4066162109375,853.8095092773438
2024-01-08 17:28:06.640200,900.5494384765625,770.8058471679688,841.7216186523438,862.6740112304688,993.6264038085938
2024-01-08 17:28:06.658326,882.0146484375,769.5970458984375,836.4835205078125,841.7216186523438,876.7765502929688
2024-01-08 17:28:06.683831,862.2710571289062,773.2234497070312,832.4542236328125,865.091552734375,795.7875366210938
2024-01-08 17:28:06.685172,875.970703125,773.6264038085938,835.2747192382812,863.4798583984375,813.113525390625
2024-01-08 17:28:06.687821,856.6300659179688,764.3589477539062,836.886474609375,860.6593627929688,748.2417602539062
2024-01-08 17:28:06.708708,859.4505615234375,764.3589477539062,836.08056640625,866.7033081054688,634.2124633789062
2024-01-08 17:28:06.721934,875.970703125,772.0146484375,838.4981689453125,861.4652099609375,609.6337280273438
2024-01-08 17:28:06.724678,900.5494384765625,775.2380981445312,844.5421142578125,867.5091552734375,927.1428833007812
2024-01-08 17:28:06.736595,907.8021850585938,772.0146484375,844.1392211914062,842.930419921875,910.6226806640625
2024-01-08 17:28:06.748405,892.4908447265625,771.2088012695312,840.5128173828125,834.06591796875,834.4688720703125
2024-01-08 17:28:06.763405,887.6557006835938,772.0146484375,840.10986328125,863.076904296875,950.10986328125
2024-01-08 17:28:06.774862,875.1648559570312,773.6264038085938,838.4981689453125,879.5970458984375,928.3516235351562
2024-01-08 17:28:06.792518,861.062255859375,773.2234497070312,837.2893676757812,854.6153564453125,773.6264038085938
2024-01-08 17:28:06.814141,863.8828125,774.4322509765625,835.6776733398438,839.7069702148438,713.99267578125
2024-01-08 17:28:06.815112,879.1941528320312,776.4468994140625,839.7069702148438,854.6153564453125,798.6080322265625
2024-01-08 17:28:06.819056,875.1648559570312,773.2234497070312,837.2893676757812,834.4688720703125,871.94140625
2024-01-08 17:28:06.834773,852.1978149414062,771.2088012695312,831.2454223632812,843.3333129882812,801.8314819335938
2024-01-08 17:28:06.845050,850.5860595703125,771.2088012695312,830.4395751953125,856.6300659179688,769.1941528320312
2024-01-08 17:28:06.856785,869.5238037109375,772.0146484375,828.4249267578125,840.10986328125,984.7619018554688
2024-01-08 17:28:06.862041,885.2380981445312,775.2380981445312,831.6483764648438,846.959716796875,1015.3846435546875
2024-01-08 17:28:06.874347,872.3442993164062,776.0439453125,838.901123046875,855.018310546875,773.2234497070312
2024-01-08 17:28:06.894945,864.6886596679688,772.8204956054688,841.7216186523438,853.4066162109375,683.7728881835938
2024-01-08 17:28:06.900492,870.3296508789062,777.2527465820312,841.3186645507812,859.047607421875,859.047607421875
2024-01-08 17:28:06.908712,875.970703125,777.6557006835938,838.901123046875,836.08056640625,887.6557006835938
2024-01-08 17:28:06.915299,887.6557006835938,772.0146484375,842.12451171875,805.4578857421875,705.5311279296875
2024-01-08 17:28:06.956011,870.7326049804688,772.0146484375,843.7362670898438,816.7399291992188,765.5677490234375
2024-01-08 17:28:06.956925,843.7362670898438,767.1795043945312,843.3333129882812,820.3662719726562,916.6666870117188
2024-01-08 17:28:06.957615,840.5128173828125,766.3735961914062,843.7362670898438,823.1868286132812,822.7838745117188
2024-01-08 17:28:06.994768,861.8681030273438,770.8058471679688,842.5274658203125,823.5897216796875,695.4578857421875
2024-01-08 17:28:06.997890,886.0439453125,770.4029541015625,840.915771484375,816.7399291992188,776.8497924804688
2024-01-08 17:28:07.004450,879.5970458984375,770.8058471679688,838.901123046875,815.93408203125,844.1392211914062
2024-01-08 17:28:07.015456,849.7802124023438,771.2088012695312,835.6776733398438,817.5457763671875,799.8168334960938
2024-01-08 17:28:07.026428,846.959716796875,772.0146484375,834.06591796875,803.4432373046875,686.1904907226562
2024-01-08 17:28:07.056953,834.06591796875,764.3589477539062,828.02197265625,826.00732421875,759.5238037109375
2024-01-08 17:28:07.057698,846.1538696289062,767.1795043945312,830.8424682617188,845.3479614257812,647.5091552734375
2024-01-08 17:28:07.060562,839.3040161132812,764.3589477539062,830.03662109375,849.3773193359375,818.7545776367188
2024-01-08 17:28:07.071709,830.8424682617188,765.1648559570312,831.2454223632812,832.8571166992188,778.05859375
2024-01-08 17:28:07.100308,844.1392211914062,766.7765502929688,829.6337280273438,837.6923217773438,694.2490844726562
2024-01-08 17:28:07.115607,850.1831665039062,763.1502075195312,824.7985229492188,836.4835205078125,890.879150390625
2024-01-08 17:28:07.125504,845.7509155273438,759.5238037109375,828.4249267578125,830.4395751953125,1035.5311279296875
2024-01-08 17:28:07.136573,826.00732421875,753.4798583984375,826.00732421875,816.7399291992188,874.3589477539062
2024-01-08 17:28:07.144061,827.6190185546875,749.8534545898438,817.94873046875,811.098876953125,635.4212646484375
2024-01-08 17:28:07.156077,841.3186645507812,754.6886596679688,819.5604248046875,821.1721801757812,739.7802124023438
2024-01-08 17:28:07.161591,858.2417602539062,757.912109375,819.5604248046875,834.4688720703125,896.1171875
2024-01-08 17:28:07.172895,846.5567626953125,753.076904296875,817.94873046875,830.8424682617188,832.4542236328125
2024-01-08 17:28:07.217806,820.7692260742188,749.8534545898438,819.1575317382812,823.99267578125,684.981689453125
2024-01-08 17:28:07.218666,824.3956298828125,752.2710571289062,817.5457763671875,816.3369750976562,676.5201416015625
2024-01-08 17:28:07.229246,821.1721801757812,752.2710571289062,817.5457763671875,812.7106323242188,782.893798828125
2024-01-08 17:28:07.239425,818.3516235351562,752.2710571289062,817.94873046875,821.5750732421875,842.12451171875
2024-01-08 17:28:07.248522,844.1392211914062,755.8974609375,817.94873046875,826.8131713867188,862.6740112304688
2024-01-08 17:28:07.259296,850.5860595703125,755.4945068359375,817.5457763671875,821.5750732421875,949.3040161132812
2024-01-08 17:28:07.275539,837.2893676757812,755.4945068359375,811.90478515625,807.069580078125,965.8241577148438
2024-01-08 17:28:07.291527,827.6190185546875,754.6886596679688,814.3223266601562,789.7435913085938,830.8424682617188
2024-01-08 17:28:07.312439,825.2014770507812,750.2564086914062,817.94873046875,793.7728881835938,786.1171875
2024-01-08 17:28:07.338373,843.7362670898438,751.062255859375,814.3223266601562,813.5164794921875,1020.6226806640625
2024-01-08 17:28:07.341213,842.930419921875,754.6886596679688,817.1428833007812,813.113525390625,1051.6483154296875
2024-01-08 17:28:07.347357,827.2161254882812,758.3150024414062,817.5457763671875,804.2490844726562,683.7728881835938
2024-01-08 17:28:07.367048,836.886474609375,762.3442993164062,815.1282348632812,828.02197265625,736.1538696289062
2024-01-08 17:28:07.378293,857.032958984375,762.7472534179688,816.7399291992188,828.8278198242188,1078.24169921875
2024-01-08 17:28:07.382232,848.5714111328125,757.106201171875,815.93408203125,806.2637329101562,1124.981689453125
2024-01-08 17:28:07.390530,817.1428833007812,748.6447143554688,813.5164794921875,815.5311279296875,926.3369750976562
2024-01-08 17:28:07.413713,828.8278198242188,748.6447143554688,815.5311279296875,850.1831665039062,876.3735961914062
2024-01-08 17:28:07.423078,832.8571166992188,753.8828125,819.1575317382812,870.3296508789062,900.5494384765625
2024-01-08 17:28:07.439350,857.4359130859375,754.2857055664062,819.96337890625,884.029296875,893.6996459960938
2024-01-08 17:28:07.455764,894.1025390625,757.106201171875,815.93408203125,886.8497924804688,938.8278198242188
2024-01-08 17:28:07.458408,875.5677490234375,759.5238037109375,819.96337890625,896.1171875,881.2088012695312
2024-01-08 17:28:07.462897,851.3919677734375,758.3150024414062,823.99267578125,930.3662719726562,930.7692260742188
2024-01-08 17:28:07.498539,860.2564086914062,751.062255859375,816.3369750976562,845.7509155273438,684.5787353515625
2024-01-08 17:28:07.507715,848.974365234375,745.8241577148438,819.5604248046875,831.2454223632812,723.2600708007812
2024-01-08 17:28:07.517053,837.6923217773438,739.3773193359375,814.3223266601562,817.94873046875,732.930419921875
2024-01-08 17:28:07.530342,832.4542236328125,745.8241577148438,811.90478515625,825.2014770507812,680.1465454101562
2024-01-08 17:28:07.543699,851.7948608398438,755.091552734375,814.3223266601562,838.09521484375,778.8644409179688
2024-01-08 17:28:07.559231,879.5970458984375,758.7179565429688,816.3369750976562,844.945068359375,966.2271118164062
2024-01-08 17:28:07.565404,868.3150024414062,759.5238037109375,814.7252807617188,838.09521484375,912.6373901367188
2024-01-08 17:28:07.576041,838.09521484375,751.062255859375,805.8607788085938,816.7399291992188,691.8314819335938
2024-01-08 17:28:07.583771,832.8571166992188,745.8241577148438,804.2490844726562,809.4871826171875,585.054931640625
2024-01-08 17:28:07.589066,847.7655639648438,750.2564086914062,805.8607788085938,825.6043701171875,906.5933837890625
2024-01-08 17:28:07.634397,846.959716796875,751.062255859375,805.8607788085938,833.6630249023438,1075.82421875
2024-01-08 17:28:07.649554,831.2454223632812,750.2564086914062,808.2783813476562,813.5164794921875,729.7069702148438
2024-01-08 17:28:07.679124,839.3040161132812,758.3150024414062,805.4578857421875,803.4432373046875,809.084228515625
2024-01-08 17:28:07.681803,854.2124633789062,760.3296508789062,804.2490844726562,802.6373901367188,910.2197875976562
2024-01-08 17:28:07.686002,856.2271118164062,754.6886596679688,810.2930297851562,814.7252807617188,866.7033081054688
2024-01-08 17:28:07.700368,857.4359130859375,751.4652099609375,813.91943359375,819.96337890625,875.970703125
2024-01-08 17:28:07.707719,838.901123046875,757.5091552734375,809.89013671875,811.90478515625,883.2234497070312
2024-01-08 17:28:07.750542,830.8424682617188,757.106201171875,805.8607788085938,809.89013671875,948.4981689453125
2024-01-08 17:28:07.751588,846.959716796875,750.2564086914062,807.069580078125,793.3699340820312,958.5714111328125
2024-01-08 17:28:07.761876,828.8278198242188,758.3150024414062,811.098876953125,774.8351440429688,875.970703125
2024-01-08 17:28:07.770702,828.4249267578125,758.3150024414062,811.90478515625,784.908447265625,843.7362670898438
2024-01-08 17:28:07.785056,848.974365234375,751.8681030273438,807.069580078125,801.025634765625,829.2307739257812
2024-01-08 17:28:07.803433,830.03662109375,750.2564086914062,809.4871826171875,805.054931640625,655.970703125
2024-01-08 17:28:07.806974,842.930419921875,746.6300659179688,812.7106323242188,790.952392578125,519.3773193359375
2024-01-08 17:28:07.849801,870.7326049804688,752.2710571289062,809.4871826171875,789.3406372070312,727.6923217773438
2024-01-08 17:28:07.854512,859.4505615234375,755.4945068359375,806.6666870117188,796.996337890625,985.970703125
2024-01-08 17:28:07.857145,819.96337890625,752.2710571289062,805.4578857421875,763.9560546875,833.2600708007812
2024-01-08 17:28:07.885271,816.3369750976562,748.6447143554688,805.4578857421875,756.7033081054688,733.3333129882812
2024-01-08 17:28:07.917368,846.1538696289062,743.003662109375,807.069580078125,796.996337890625,849.7802124023438
2024-01-08 17:28:07.919320,863.4798583984375,751.4652099609375,805.054931640625,801.4285888671875,800.2197875976562
2024-01-08 17:28:07.968280,830.8424682617188,751.4652099609375,806.2637329101562,813.91943359375,735.7509155273438
2024-01-08 17:28:07.977928,834.4688720703125,740.1831665039062,809.89013671875,830.03662109375,719.6337280273438
2024-01-08 17:28:07.989421,875.1648559570312,743.4066162109375,806.6666870117188,824.7985229492188,829.2307739257812
2024-01-08 17:28:08.013238,861.4652099609375,740.989013671875,804.2490844726562,812.7106323242188,959.3773193359375
2024-01-08 17:28:08.065822,848.5714111328125,738.1685180664062,801.8314819335938,826.00732421875,671.2820434570312
2024-01-08 17:28:08.072577,863.4798583984375,744.6153564453125,805.4578857421875,842.5274658203125,570.952392578125
2024-01-08 17:28:08.088389,866.7033081054688,751.4652099609375,805.8607788085938,824.3956298828125,687.8021850585938
2024-01-08 17:28:08.120370,846.959716796875,752.6740112304688,804.2490844726562,828.4249267578125,655.1648559570312
2024-01-08 17:28:08.125081,828.02197265625,753.4798583984375,803.4432373046875,823.99267578125,545.970703125
2024-01-08 17:28:08.132333,796.5933837890625,729.7069702148438,822.3809814453125,824.7985229492188,1172.930419921875
2024-01-08 17:28:08.138381,776.4468994140625,726.886474609375,819.5604248046875,787.3259887695312,884.8351440429688
2024-01-08 17:28:08.141892,786.1171875,734.5421142578125,815.5311279296875,788.1318969726562,767.5823974609375
2024-01-08 17:28:08.145046,772.4176025390625,735.3479614257812,819.1575317382812,805.054931640625,909.010986328125
2024-01-08 17:28:08.146654,776.0439453125,731.3186645507812,822.7838745117188,808.2783813476562,888.8644409179688
2024-01-08 17:28:08.200707,800.2197875976562,734.1392211914062,816.7399291992188,796.5933837890625,736.1538696289062
2024-01-08 17:28:08.220019,779.6703491210938,736.959716796875,805.054931640625,792.5640869140625,765.970703125
2024-01-08 17:28:08.251444,749.8534545898438,736.1538696289062,804.2490844726562,785.7142944335938,772.0146484375
2024-01-08 17:28:08.278888,736.959716796875,735.7509155273438,809.89013671875,785.3113403320312,765.970703125
2024-01-08 17:28:08.287919,751.062255859375,733.3333129882812,810.6959838867188,782.893798828125,745.4212646484375
2024-01-08 17:28:08.302793,751.8681030273438,733.3333129882812,811.098876953125,787.7289428710938,845.7509155273438
2024-01-08 17:28:08.306666,752.6740112304688,735.7509155273438,809.89013671875,781.6849975585938,1049.6336669921875
2024-01-08 17:28:08.308622,754.2857055664062,734.1392211914062,805.4578857421875,772.8204956054688,916.6666870117188
2024-01-08 17:28:08.309058,744.2124633789062,731.3186645507812,802.2344360351562,786.5201416015625,720.4395751953125
2024-01-08 17:28:08.310964,752.6740112304688,733.7362670898438,802.2344360351562,786.5201416015625,736.5567626953125
2024-01-08 17:28:08.337700,771.2088012695312,736.5567626953125,802.6373901367188,793.7728881835938,971.062255859375
2024-01-08 17:28:08.365715,775.6410522460938,733.7362670898438,803.040283203125,795.7875366210938,956.959716796875
2024-01-08 17:28:08.390521,764.7619018554688,732.930419921875,806.2637329101562,796.1904907226562,736.5567626953125
2024-01-08 17:28:08.427850,750.2564086914062,734.1392211914062,804.6520385742188,807.4725341796875,880.8058471679688
2024-01-08 17:28:08.450484,761.5384521484375,734.945068359375,801.025634765625,787.3259887695312,878.3883056640625
2024-01-08 17:28:08.452833,776.4468994140625,734.1392211914062,799.4139404296875,769.5970458984375,788.1318969726562
2024-01-08 17:28:08.456871,766.7765502929688,736.1538696289062,796.1904907226562,773.6264038085938,851.7948608398438
2024-01-08 17:28:08.470921,791.7582397460938,739.7802124023438,795.7875366210938,776.4468994140625,797.3992919921875
2024-01-08 17:28:08.486693,788.5347900390625,738.1685180664062,798.6080322265625,774.029296875,785.7142944335938
2024-01-08 17:28:08.496536,778.8644409179688,737.3626098632812,799.8168334960938,782.087890625,817.94873046875
2024-01-08 17:28:08.506423,784.908447265625,737.3626098632812,803.040283203125,797.3992919921875,778.8644409179688
2024-01-08 17:28:08.511945,786.923095703125,743.8095092773438,799.4139404296875,796.1904907226562,927.94873046875
2024-01-08 17:28:08.529537,786.923095703125,742.6007080078125,791.3552856445312,789.3406372070312,1000.0732421875
2024-01-08 17:28:08.543880,782.4908447265625,736.5567626953125,788.937744140625,784.1025390625,836.4835205078125
2024-01-08 17:28:08.578325,795.7875366210938,736.5567626953125,787.3259887695312,784.908447265625,861.062255859375
2024-01-08 17:28:08.612631,811.098876953125,741.3919677734375,790.1465454101562,787.7289428710938,1069.7802734375
2024-01-08 17:28:08.615621,794.981689453125,747.8388061523438,792.967041015625,792.5640869140625,1039.157470703125
2024-01-08 17:28:08.618206,792.967041015625,743.4066162109375,787.3259887695312,772.0146484375,766.7765502929688
2024-01-08 17:28:08.629030,799.4139404296875,742.1978149414062,780.0732421875,772.0146484375,673.6996459960938
2024-01-08 17:28:08.638887,807.4725341796875,742.6007080078125,780.879150390625,781.6849975585938,783.6996459960938
2024-01-08 17:28:08.659390,815.1282348632812,742.6007080078125,782.4908447265625,794.5787353515625,911.8314819335938
2024-01-08 17:28:08.669031,810.6959838867188,741.7948608398438,780.879150390625,785.3113403320312,890.0732421875
2024-01-08 17:28:08.692028,842.5274658203125,734.945068359375,792.1611938476562,815.93408203125,851.3919677734375
2024-01-08 17:28:08.701074,832.4542236328125,734.1392211914062,794.1758422851562,833.2600708007812,852.6007080078125
2024-01-08 17:28:08.723632,821.97802734375,732.5274658203125,793.3699340820312,799.010986328125,905.7875366210938
2024-01-08 17:28:08.731500,834.4688720703125,731.7216186523438,788.1318969726562,769.1941528320312,832.8571166992188
2024-01-08 17:28:08.773934,845.7509155273438,735.3479614257812,786.1171875,804.2490844726562,899.7435913085938
2024-01-08 17:28:08.774551,823.5897216796875,738.1685180664062,790.952392578125,834.06591796875,806.2637329101562
2024-01-08 17:28:08.778236,806.6666870117188,736.5567626953125,795.3846435546875,814.7252807617188,635.8241577148438
2024-01-08 17:28:08.784856,810.6959838867188,738.1685180664062,797.8021850585938,796.5933837890625,710.3662719726562
2024-01-08 17:28:08.799181,821.1721801757812,737.3626098632812,794.981689453125,792.967041015625,800.2197875976562
2024-01-08 17:28:08.819941,817.5457763671875,735.7509155273438,795.3846435546875,814.3223266601562,871.5384521484375
2024-01-08 17:28:08.840298,826.8131713867188,734.1392211914062,797.3992919921875,805.4578857421875,863.076904296875
2024-01-08 17:28:08.848828,827.6190185546875,735.3479614257812,799.010986328125,794.981689453125,755.8974609375
2024-01-08 17:28:08.860390,816.3369750976562,743.4066162109375,806.2637329101562,830.03662109375,763.9560546875
2024-01-08 17:28:08.865440,813.5164794921875,742.6007080078125,807.87548828125,854.2124633789062,977.106201171875
2024-01-08 17:28:08.877894,817.94873046875,734.1392211914062,802.6373901367188,838.09521484375,916.6666870117188
2024-01-08 17:28:08.910572,829.2307739257812,735.7509155273438,798.6080322265625,815.5311279296875,762.3442993164062
2024-01-08 17:28:08.949413,840.10986328125,736.959716796875,798.2051391601562,830.8424682617188,832.8571166992188
2024-01-08 17:28:08.951802,839.3040161132812,734.945068359375,798.6080322265625,824.3956298828125,765.5677490234375
2024-01-08 17:28:08.957208,803.8461303710938,730.10986328125,796.996337890625,808.2783813476562,711.5750732421875
2024-01-08 17:28:08.964064,798.6080322265625,728.901123046875,801.8314819335938,825.2014770507812,825.2014770507812
2024-01-08 17:28:08.966271,820.7692260742188,734.945068359375,802.6373901367188,826.00732421875,860.6593627929688
2024-01-08 17:28:08.993613,813.5164794921875,736.5567626953125,797.3992919921875,826.00732421875,803.8461303710938
2024-01-08 17:28:09.015786,821.1721801757812,738.1685180664062,799.010986328125,840.10986328125,760.3296508789062
2024-01-08 17:28:09.039770,831.6483764648438,736.959716796875,803.8461303710938,836.886474609375,722.4542236328125
2024-01-08 17:28:09.055247,830.03662109375,739.3773193359375,804.2490844726562,844.945068359375,877.9853515625
2024-01-08 17:28:09.093378,819.1575317382812,736.5567626953125,800.2197875976562,870.3296508789062,1019.010986328125
2024-01-08 17:28:09.094571,800.6226806640625,730.10986328125,795.3846435546875,819.96337890625,855.4212646484375
2024-01-08 17:28:09.098945,830.8424682617188,735.3479614257812,798.6080322265625,799.8168334960938,816.3369750976562
2024-01-08 17:28:09.118336,854.6153564453125,738.1685180664062,801.8314819335938,822.3809814453125,856.6300659179688
2024-01-08 17:28:09.124259,832.8571166992188,734.5421142578125,797.8021850585938,797.8021850585938,779.6703491210938
2024-01-08 17:28:09.144187,820.3662719726562,732.930419921875,800.2197875976562,782.4908447265625,810.2930297851562
2024-01-08 17:28:09.173747,817.94873046875,734.1392211914062,801.8314819335938,793.7728881835938,811.098876953125
2024-01-08 17:28:09.183263,815.1282348632812,737.7655639648438,799.4139404296875,823.1868286132812,762.3442993164062
2024-01-08 17:28:09.194169,819.5604248046875,739.3773193359375,800.6226806640625,839.7069702148438,767.5823974609375
2024-01-08 17:28:09.216185,827.2161254882812,735.7509155273438,803.8461303710938,811.5018310546875,711.97802734375
2024-01-08 17:28:09.244455,835.6776733398438,735.7509155273438,804.6520385742188,796.1904907226562,752.2710571289062
2024-01-08 17:28:09.251405,839.3040161132812,735.3479614257812,804.6520385742188,804.6520385742188,884.4322509765625
2024-01-08 17:28:09.258703,836.4835205078125,731.3186645507812,804.2490844726562,810.6959838867188,869.120849609375
2024-01-08 17:28:09.274108,842.5274658203125,740.1831665039062,800.2197875976562,813.113525390625,698.2783813476562
2024-01-08 17:28:09.281676,834.06591796875,744.2124633789062,799.4139404296875,809.89013671875,768.7911987304688
2024-01-08 17:28:09.298948,830.8424682617188,743.4066162109375,801.4285888671875,801.4285888671875,761.94140625
2024-01-08 17:28:09.328401,827.2161254882812,732.5274658203125,810.6959838867188,804.6520385742188,680.1465454101562
2024-01-08 17:28:09.337090,847.7655639648438,740.5860595703125,812.7106323242188,801.025634765625,716.8131713867188
2024-01-08 17:28:09.342829,862.6740112304688,746.2271118164062,804.2490844726562,799.4139404296875,872.3442993164062
2024-01-08 17:28:09.348946,858.2417602539062,742.1978149414062,802.6373901367188,802.6373901367188,863.076904296875
2024-01-08 17:28:09.367797,838.901123046875,739.3773193359375,799.8168334960938,809.4871826171875,809.89013671875
2024-01-08 17:28:09.396387,842.12451171875,738.1685180664062,797.3992919921875,817.94873046875,903.7728881835938
2024-01-08 17:28:09.410167,844.1392211914062,736.1538696289062,798.2051391601562,813.91943359375,1078.24169921875
2024-01-08 17:28:09.434038,836.08056640625,735.7509155273438,798.6080322265625,787.7289428710938,927.94873046875
2024-01-08 17:28:09.445855,822.3809814453125,739.3773193359375,798.6080322265625,781.6849975585938,819.5604248046875
2024-01-08 17:28:09.486889,807.4725341796875,737.3626098632812,798.2051391601562,775.2380981445312,968.6447143554688
2024-01-08 17:28:09.489568,799.4139404296875,737.3626098632812,798.6080322265625,785.3113403320312,944.06591796875
2024-01-08 17:28:09.495220,822.3809814453125,736.1538696289062,803.4432373046875,811.098876953125,757.912109375
2024-01-08 17:28:09.504370,832.8571166992188,736.5567626953125,806.2637329101562,829.6337280273438,627.7655639648438
2024-01-08 17:28:09.517526,820.3662719726562,739.3773193359375,802.6373901367188,816.7399291992188,631.7948608398438
2024-01-08 17:28:09.574801,817.5457763671875,738.1685180664062,795.3846435546875,796.1904907226562,635.4212646484375
2024-01-08 17:28:09.576725,807.87548828125,739.3773193359375,790.5494384765625,784.908447265625,671.2820434570312
2024-01-08 17:28:09.580007,810.2930297851562,738.1685180664062,790.5494384765625,773.2234497070312,791.3552856445312
2024-01-08 17:28:09.588597,812.7106323242188,736.1538696289062,795.3846435546875,784.5054931640625,996.8497924804688
2024-01-08 17:28:09.601173,790.5494384765625,737.7655639648438,796.996337890625,778.8644409179688,843.7362670898438
2024-01-08 17:28:09.619633,784.5054931640625,737.7655639648438,794.5787353515625,787.3259887695312,647.912109375
2024-01-08 17:28:09.632730,792.967041015625,736.1538696289062,797.3992919921875,791.7582397460938,824.7985229492188
2024-01-08 17:28:09.689897,790.952392578125,734.5421142578125,793.3699340820312,786.5201416015625,987.5823974609375
2024-01-08 17:28:09.691482,801.4285888671875,737.7655639648438,792.1611938476562,804.2490844726562,930.3662719726562
2024-01-08 17:28:09.695602,810.6959838867188,740.1831665039062,798.2051391601562,795.7875366210938,811.5018310546875
2024-01-08 17:28:09.701378,800.6226806640625,738.5714111328125,803.4432373046875,796.5933837890625,792.1611938476562
2024-01-08 17:28:09.718670,790.952392578125,731.7216186523438,803.4432373046875,782.893798828125,762.3442993164062
2024-01-08 17:28:09.735068,792.967041015625,726.4835205078125,799.8168334960938,763.1502075195312,745.4212646484375
2024-01-08 17:28:09.764543,832.8571166992188,732.12451171875,800.2197875976562,794.1758422851562,810.6959838867188
2024-01-08 17:28:09.786961,857.032958984375,738.1685180664062,804.6520385742188,807.87548828125,911.4285888671875
2024-01-08 17:28:09.807312,828.02197265625,736.959716796875,802.2344360351562,765.1648559570312,896.5201416015625
2024-01-08 17:28:09.823224,813.5164794921875,740.989013671875,794.1758422851562,778.4615478515625,665.6410522460938
2024-01-08 17:28:09.831113,819.96337890625,744.2124633789062,793.7728881835938,791.3552856445312,755.8974609375
2024-01-08 17:28:09.836926,831.2454223632812,735.3479614257812,798.6080322265625,778.4615478515625,847.3626098632812
2024-01-08 17:28:09.897341,811.5018310546875,751.4652099609375,807.4725341796875,815.1282348632812,736.959716796875
2024-01-08 17:28:09.899900,823.5897216796875,757.5091552734375,803.8461303710938,792.5640869140625,836.4835205078125
2024-01-08 17:28:09.909724,833.2600708007812,752.2710571289062,808.6813354492188,820.7692260742188,739.7802124023438
2024-01-08 17:28:09.918327,834.4688720703125,751.4652099609375,806.6666870117188,824.7985229492188,682.5640869140625
2024-01-08 17:28:09.928182,829.6337280273438,751.4652099609375,807.4725341796875,831.6483764648438,796.996337890625
2024-01-08 17:28:09.986010,825.2014770507812,753.4798583984375,808.2783813476562,852.6007080078125,898.5347900390625
2024-01-08 17:28:09.987153,811.098876953125,753.076904296875,807.069580078125,833.2600708007812,1052.05126953125
2024-01-08 17:28:10.000848,806.2637329101562,749.047607421875,802.6373901367188,813.5164794921875,844.945068359375
2024-01-08 17:28:10.014277,815.93408203125,758.3150024414062,796.5933837890625,810.6959838867188,720.8424682617188
2024-01-08 17:28:10.037418,805.4578857421875,758.7179565429688,799.010986328125,828.02197265625,858.2417602539062
2024-01-08 17:28:10.052419,798.6080322265625,748.6447143554688,801.025634765625,836.886474609375,770.0
2024-01-08 17:28:10.059803,819.1575317382812,745.018310546875,799.010986328125,820.7692260742188,621.7216186523438
2024-01-08 17:28:10.075856,799.010986328125,745.4212646484375,797.3992919921875,802.2344360351562,576.996337890625
2024-01-08 17:28:10.093675,767.1795043945312,748.6447143554688,798.6080322265625,819.1575317382812,627.3626098632812
2024-01-08 17:28:10.099943,784.908447265625,746.6300659179688,801.8314819335938,833.6630249023438,615.6776733398438
2024-01-08 17:28:10.100546,814.7252807617188,754.2857055664062,807.87548828125,818.7545776367188,637.032958984375
2024-01-08 17:28:10.206087,830.8424682617188,763.9560546875,807.069580078125,838.4981689453125,827.2161254882812
2024-01-08 17:28:10.218746,817.1428833007812,757.912109375,805.4578857421875,843.7362670898438,993.6264038085938
2024-01-08 17:28:10.251170,819.5604248046875,755.091552734375,807.87548828125,821.97802734375,964.6153564453125
2024-01-08 17:28:10.273691,827.6190185546875,753.8828125,810.2930297851562,834.06591796875,805.4578857421875
2024-01-08 17:28:10.291426,828.4249267578125,753.076904296875,812.7106323242188,844.945068359375,745.8241577148438
2024-01-08 17:28:10.309600,820.7692260742188,755.091552734375,813.113525390625,838.09521484375,877.5823974609375
2024-01-08 17:28:10.332246,818.7545776367188,750.2564086914062,807.4725341796875,823.99267578125,799.010986328125
2024-01-08 17:28:10.361765,829.6337280273438,746.6300659179688,803.040283203125,846.5567626953125,574.1758422851562
2024-01-08 17:28:10.399089,829.6337280273438,746.2271118164062,799.8168334960938,832.4542236328125,632.6007080078125
2024-01-08 17:28:10.399608,817.1428833007812,754.2857055664062,791.3552856445312,796.5933837890625,757.5091552734375
2024-01-08 17:28:10.406777,795.7875366210938,753.8828125,796.1904907226562,815.93408203125,672.4908447265625
2024-01-08 17:28:10.420152,810.6959838867188,746.6300659179688,798.2051391601562,813.113525390625,651.5384521484375
2024-01-08 17:28:10.437450,838.901123046875,748.2417602539062,792.5640869140625,799.4139404296875,837.2893676757812
2024-01-08 17:28:10.444541,806.6666870117188,743.4066162109375,792.967041015625,801.025634765625,990.0
2024-01-08 17:28:10.451308,803.8461303710938,738.974365234375,796.5933837890625,805.4578857421875,966.6300659179688
2024-01-08 17:28:10.511832,798.6080322265625,751.062255859375,789.7435913085938,782.893798828125,639.4505615234375
2024-01-08 17:28:10.515163,780.879150390625,755.091552734375,789.7435913085938,800.2197875976562,678.5347900390625
2024-01-08 17:28:10.524450,805.054931640625,753.4798583984375,791.3552856445312,785.3113403320312,777.2527465820312
2024-01-08 17:28:10.574902,811.90478515625,753.4798583984375,792.1611938476562,772.8204956054688,868.3150024414062
2024-01-08 17:28:10.575550,811.5018310546875,752.6740112304688,793.3699340820312,794.981689453125,901.7582397460938
2024-01-08 17:28:10.577865,815.93408203125,749.047607421875,793.7728881835938,812.7106323242188,929.1575317382812
2024-01-08 17:28:10.585927,831.2454223632812,752.2710571289062,798.6080322265625,808.2783813476562,978.7179565429688
2024-01-08 17:28:10.607463,851.3919677734375,755.091552734375,802.2344360351562,810.6959838867188,850.989013671875
2024-01-08 17:28:10.615715,847.3626098632812,751.4652099609375,795.7875366210938,820.3662719726562,935.2014770507812
2024-01-08 17:28:10.621132,835.2747192382812,742.1978149414062,794.1758422851562,800.6226806640625,963.8095092773438
2024-01-08 17:28:10.659073,826.4102783203125,740.989013671875,800.2197875976562,794.5787353515625,709.96337890625
2024-01-08 17:28:10.669336,831.6483764648438,746.6300659179688,803.040283203125,809.084228515625,713.5897216796875
2024-01-08 17:28:10.730625,843.3333129882812,745.018310546875,800.6226806640625,818.7545776367188,820.3662719726562
2024-01-08 17:28:10.731573,854.2124633789062,747.4359130859375,802.2344360351562,830.8424682617188,848.5714111328125
2024-01-08 17:28:10.736114,836.08056640625,752.6740112304688,803.8461303710938,817.5457763671875,707.94873046875
2024-01-08 17:28:10.742864,835.6776733398438,748.2417602539062,802.2344360351562,805.4578857421875,753.4798583984375
2024-01-08 17:28:10.748419,837.2893676757812,743.003662109375,803.8461303710938,798.6080322265625,826.8131713867188
2024-01-08 17:28:10.782317,844.1392211914062,740.1831665039062,806.6666870117188,799.8168334960938,933.99267578125
2024-01-08 17:28:10.799376,873.9560546875,743.4066162109375,807.87548828125,802.2344360351562,1021.8314819335938
2024-01-08 17:28:10.807696,868.7179565429688,751.4652099609375,802.2344360351562,813.91943359375,1129.4139404296875
2024-01-08 17:28:10.824330,840.10986328125,748.6447143554688,800.6226806640625,824.7985229492188,1185.4212646484375
2024-01-08 17:28:10.831734,854.2124633789062,747.032958984375,802.2344360351562,810.6959838867188,885.6410522460938
2024-01-08 17:28:10.842502,874.7619018554688,753.076904296875,801.4285888671875,813.5164794921875,769.1941528320312
2024-01-08 17:28:10.876951,867.106201171875,750.6593627929688,808.2783813476562,826.4102783203125,820.7692260742188
2024-01-08 17:28:10.941672,862.2710571289062,744.6153564453125,811.90478515625,827.2161254882812,805.8607788085938
2024-01-08 17:28:10.942459,853.8095092773438,743.4066162109375,803.040283203125,814.3223266601562,805.8607788085938
2024-01-08 17:28:10.946531,855.4212646484375,752.2710571289062,794.1758422851562,809.084228515625,863.076904296875
2024-01-08 17:28:10.956599,857.8388061523438,753.8828125,794.5787353515625,834.4688720703125,892.893798828125
2024-01-08 17:28:10.963730,846.1538696289062,747.8388061523438,800.6226806640625,848.5714111328125,849.7802124023438
2024-01-08 17:28:11.029887,757.5091552734375,742.1978149414062,803.4432373046875,787.7289428710938,603.5897216796875
2024-01-08 17:28:11.030717,756.3003540039062,744.2124633789062,805.8607788085938,774.8351440429688,634.6153564453125
2024-01-08 17:28:11.033869,749.4505615234375,742.1978149414062,800.2197875976562,770.4029541015625,655.1648559570312
2024-01-08 17:28:11.092826,738.1685180664062,738.974365234375,798.2051391601562,774.029296875,649.5238037109375
2024-01-08 17:28:11.094092,751.8681030273438,735.7509155273438,797.8021850585938,777.2527465820312,642.6740112304688
2024-01-08 17:28:11.105318,758.3150024414062,730.915771484375,797.3992919921875,772.8204956054688,824.3956298828125
2024-01-08 17:28:11.110797,749.4505615234375,728.901123046875,800.6226806640625,785.3113403320312,923.113525390625
2024-01-08 17:28:11.141916,762.7472534179688,732.930419921875,801.025634765625,792.967041015625,720.03662109375
2024-01-08 17:28:11.154459,759.5238037109375,736.5567626953125,800.2197875976562,792.967041015625,780.4761962890625
2024-01-08 17:28:11.169809,760.3296508789062,740.1831665039062,798.6080322265625,811.5018310546875,1072.19775390625
2024-01-08 17:28:11.184305,766.3735961914062,739.7802124023438,798.6080322265625,806.2637329101562,1198.3150634765625
2024-01-08 17:28:11.202688,751.8681030273438,730.915771484375,792.967041015625,767.5823974609375,909.4139404296875
2024-01-08 17:28:11.258196,751.4652099609375,729.3040161132812,787.3259887695312,757.106201171875,759.120849609375
2024-01-08 17:28:11.259053,765.5677490234375,734.1392211914062,790.1465454101562,765.5677490234375,806.6666870117188
2024-01-08 17:28:11.260005,766.7765502929688,738.1685180664062,792.5640869140625,784.1025390625,853.4066162109375
2024-01-08 17:28:11.264495,757.912109375,738.1685180664062,789.7435913085938,782.4908447265625,782.087890625
2024-01-08 17:28:11.282887,759.120849609375,739.7802124023438,788.1318969726562,789.7435913085938,788.1318969726562
2024-01-08 17:28:11.292808,766.3735961914062,744.2124633789062,791.3552856445312,807.87548828125,850.989013671875
2024-01-08 17:28:11.315859,784.908447265625,740.989013671875,792.967041015625,784.1025390625,789.7435913085938
2024-01-08 17:28:11.335021,780.0732421875,734.1392211914062,796.5933837890625,782.087890625,796.5933837890625
2024-01-08 17:28:11.358489,756.3003540039062,738.974365234375,800.2197875976562,807.069580078125,809.4871826171875
2024-01-08 17:28:11.387139,760.7326049804688,741.7948608398438,798.2051391601562,800.2197875976562,979.5238037109375
2024-01-08 17:28:11.408993,759.9267578125,736.5567626953125,793.3699340820312,779.6703491210938,987.1795043945312
2024-01-08 17:28:11.431085,763.1502075195312,734.945068359375,791.3552856445312,779.6703491210938,876.7765502929688
2024-01-08 17:28:11.481408,788.1318969726562,742.1978149414062,793.7728881835938,827.2161254882812,861.8681030273438
2024-01-08 17:28:11.484612,814.3223266601562,743.8095092773438,799.010986328125,838.901123046875,828.02197265625
2024-01-08 17:28:11.490385,816.7399291992188,739.7802124023438,799.010986328125,776.8497924804688,674.5054931640625
2024-01-08 17:28:11.496964,788.1318969726562,744.2124633789062,794.1758422851562,774.4322509765625,597.94873046875
2024-01-08 17:28:11.500461,772.4176025390625,748.6447143554688,792.1611938476562,802.6373901367188,865.091552734375
2024-01-08 17:28:11.580810,778.05859375,726.08056640625,773.6264038085938,767.5823974609375,821.5750732421875
2024-01-08 17:28:11.582010,777.6557006835938,734.945068359375,774.4322509765625,759.9267578125,749.8534545898438
2024-01-08 17:28:11.589062,784.908447265625,736.1538696289062,779.2673950195312,782.4908447265625,729.7069702148438
2024-01-08 17:28:11.606263,790.1465454101562,737.7655639648438,782.087890625,779.2673950195312,772.0146484375
2024-01-08 17:28:11.618362,797.8021850585938,739.7802124023438,785.7142944335938,771.6116943359375,838.901123046875
2024-01-08 17:28:11.637948,795.3846435546875,737.7655639648438,791.3552856445312,768.3883056640625,890.879150390625
2024-01-08 17:28:11.661616,800.2197875976562,736.1538696289062,786.5201416015625,781.2820434570312,1049.230712890625
2024-01-08 17:28:11.684402,801.025634765625,729.7069702148438,784.5054931640625,776.0439453125,1102.0146484375
2024-01-08 17:28:11.694924,774.8351440429688,722.05126953125,786.5201416015625,765.970703125,889.2673950195312
2024-01-08 17:28:11.704386,761.1355590820312,720.4395751953125,784.5054931640625,778.8644409179688,701.5018310546875
2024-01-08 17:28:11.715882,784.5054931640625,723.2600708007812,785.7142944335938,777.6557006835938,944.06591796875
2024-01-08 17:28:11.739675,785.3113403320312,726.08056640625,787.3259887695312,778.8644409179688,1061.7215576171875
2024-01-08 17:28:11.806808,765.1648559570312,727.2893676757812,780.0732421875,782.893798828125,727.6923217773438
2024-01-08 17:28:11.811281,769.1941528320312,732.5274658203125,778.8644409179688,783.6996459960938,667.2527465820312
2024-01-08 17:28:11.820150,774.4322509765625,736.5567626953125,781.6849975585938,778.05859375,854.2124633789062
2024-01-08 17:28:11.832458,787.3259887695312,739.7802124023438,788.937744140625,769.1941528320312,975.8974609375
2024-01-08 17:28:11.850523,798.6080322265625,745.018310546875,792.1611938476562,772.4176025390625,892.087890625
2024-01-08 17:28:11.907053,784.908447265625,743.4066162109375,788.937744140625,779.2673950195312,816.7399291992188
2024-01-08 17:28:11.907759,767.1795043945312,741.3919677734375,789.3406372070312,776.4468994140625,1000.879150390625
2024-01-08 17:28:11.911250,766.7765502929688,740.989013671875,790.1465454101562,776.0439453125,1103.6263427734375
2024-01-08 17:28:11.921316,772.4176025390625,734.945068359375,792.5640869140625,785.3113403320312,948.09521484375
2024-01-08 17:28:11.930239,777.2527465820312,733.7362670898438,795.3846435546875,792.967041015625,862.6740112304688
2024-01-08 17:28:11.940473,781.6849975585938,735.7509155273438,797.3992919921875,776.4468994140625,870.7326049804688
2024-01-08 17:28:11.999694,778.8644409179688,730.915771484375,793.7728881835938,766.7765502929688,804.6520385742188
2024-01-08 17:28:12.040825,782.087890625,729.3040161132812,791.3552856445312,791.7582397460938,745.018310546875
2024-01-08 17:28:12.043375,788.937744140625,736.959716796875,793.3699340820312,804.6520385742188,761.1355590820312
2024-01-08 17:28:12.045494,792.1611938476562,740.989013671875,790.5494384765625,797.3992919921875,763.1502075195312
2024-01-08 17:28:12.047910,786.923095703125,740.1831665039062,787.3259887695312,780.0732421875,789.7435913085938
2024-01-08 17:28:12.073424,783.2966918945312,737.7655639648438,785.7142944335938,776.0439453125,820.3662719726562
2024-01-08 17:28:12.079468,798.2051391601562,736.5567626953125,784.5054931640625,780.879150390625,1051.6483154296875
2024-01-08 17:28:12.105268,815.5311279296875,738.5714111328125,784.908447265625,780.879150390625,1153.5897216796875
2024-01-08 17:28:12.150198,813.113525390625,738.1685180664062,784.1025390625,782.4908447265625,941.6483764648438
2024-01-08 17:28:12.168165,805.054931640625,734.945068359375,781.6849975585938,786.1171875,717.6190185546875
2024-01-08 17:28:12.191020,801.4285888671875,733.7362670898438,783.6996459960938,784.1025390625,748.2417602539062
2024-01-08 17:28:12.201386,805.4578857421875,734.1392211914062,785.3113403320312,774.029296875,976.7033081054688
2024-01-08 17:28:12.212892,811.5018310546875,736.959716796875,783.2966918945312,784.5054931640625,912.2344360351562
2024-01-08 17:28:12.276638,799.010986328125,739.3773193359375,799.010986328125,814.3223266601562,830.4395751953125
2024-01-08 17:28:12.277344,791.3552856445312,738.5714111328125,790.5494384765625,800.6226806640625,812.3076782226562
2024-01-08 17:28:12.278334,780.879150390625,738.1685180664062,781.2820434570312,788.1318969726562,788.5347900390625
2024-01-08 17:28:12.286965,790.952392578125,743.8095092773438,784.5054931640625,807.4725341796875,892.087890625
2024-01-08 17:28:12.309109,801.025634765625,746.2271118164062,792.967041015625,816.3369750976562,833.2600708007812
2024-01-08 17:28:12.326113,792.967041015625,743.4066162109375,795.3846435546875,807.4725341796875,796.1904907226562
2024-01-08 17:28:12.359854,800.6226806640625,747.032958984375,790.952392578125,805.8607788085938,849.3773193359375
2024-01-08 17:28:12.370863,810.2930297851562,749.4505615234375,792.1611938476562,825.2014770507812,753.076904296875
2024-01-08 17:28:12.379653,811.098876953125,741.7948608398438,797.3992919921875,832.8571166992188,832.05126953125
2024-01-08 17:28:12.395768,804.6520385742188,732.12451171875,796.5933837890625,813.113525390625,940.03662109375
2024-01-08 17:28:12.418252,802.2344360351562,735.7509155273438,796.1904907226562,807.87548828125,863.4798583984375
2024-01-08 17:28:12.453498,803.4432373046875,745.8241577148438,792.1611938476562,807.87548828125,905.3846435546875
2024-01-08 17:28:12.499425,817.1428833007812,749.4505615234375,790.952392578125,815.93408203125,962.6007080078125
2024-01-08 17:28:12.504723,819.1575317382812,749.047607421875,791.7582397460938,814.7252807617188,814.7252807617188
2024-01-08 17:28:12.513938,814.3223266601562,748.2417602539062,791.3552856445312,808.6813354492188,655.1648559570312
2024-01-08 17:28:12.520904,808.6813354492188,744.2124633789062,791.7582397460938,803.8461303710938,695.8607788085938
2024-01-08 17:28:12.535016,809.89013671875,738.5714111328125,790.1465454101562,788.1318969726562,747.4359130859375
2024-01-08 17:28:12.606712,809.084228515625,738.5714111328125,787.3259887695312,787.7289428710938,845.7509155273438
2024-01-08 17:28:12.607178,803.4432373046875,736.1538696289062,791.3552856445312,801.4285888671875,960.5860595703125
2024-01-08 17:28:12.607584,819.1575317382812,736.5567626953125,796.5933837890625,824.7985229492188,930.3662719726562
2024-01-08 17:28:12.607972,815.93408203125,739.7802124023438,794.5787353515625,838.901123046875,795.3846435546875
2024-01-08 17:28:12.608482,785.3113403320312,738.5714111328125,790.952392578125,795.3846435546875,715.6043701171875
2024-01-08 17:28:12.609001,793.7728881835938,739.7802124023438,791.7582397460938,772.4176025390625,685.3846435546875
2024-01-08 17:28:12.609459,824.3956298828125,741.3919677734375,793.7728881835938,805.054931640625,747.4359130859375
2024-01-08 17:28:12.612230,821.97802734375,738.974365234375,796.5933837890625,809.4871826171875,733.3333129882812
2024-01-08 17:28:12.612797,807.4725341796875,736.5567626953125,794.5787353515625,803.8461303710938,609.6337280273438
2024-01-08 17:28:12.613268,821.5750732421875,742.6007080078125,793.7728881835938,809.89013671875,737.3626098632812
2024-01-08 17:28:12.613753,820.7692260742188,745.4212646484375,790.5494384765625,807.87548828125,945.6776733398438
2024-01-08 17:28:12.614190,813.91943359375,743.4066162109375,786.5201416015625,790.1465454101562,1023.040283203125
2024-01-08 17:28:12.614704,850.1831665039062,759.120849609375,803.4432373046875,820.3662719726562,952.5274658203125
2024-01-08 17:28:12.617542,838.09521484375,754.2857055664062,804.6520385742188,834.8717651367188,795.3846435546875
2024-01-08 17:28:12.618033,829.2307739257812,758.7179565429688,805.8607788085938,828.8278198242188,776.8497924804688
2024-01-08 17:28:12.618537,828.02197265625,757.5091552734375,802.6373901367188,802.6373901367188,897.7289428710938
2024-01-08 17:28:12.619093,830.03662109375,754.6886596679688,805.4578857421875,803.040283203125,849.7802124023438
2024-01-08 17:28:12.619558,832.8571166992188,753.4798583984375,809.4871826171875,831.2454223632812,863.8828125
2024-01-08 17:28:12.620116,835.2747192382812,751.4652099609375,801.025634765625,822.3809814453125,981.5384521484375
2024-01-08 17:28:12.620601,842.12451171875,754.6886596679688,799.4139404296875,814.7252807617188,1135.054931640625
2024-01-08 17:28:12.621071,842.930419921875,756.3003540039062,799.010986328125,815.1282348632812,1141.90478515625
2024-01-08 17:28:12.621511,838.901123046875,759.5238037109375,794.5787353515625,815.1282348632812,829.6337280273438
2024-01-08 17:28:12.621936,834.4688720703125,757.106201171875,795.7875366210938,834.06591796875,832.8571166992188
2024-01-08 17:28:12.622366,818.3516235351562,751.8681030273438,797.8021850585938,806.6666870117188,920.6959838867188
2024-01-08 17:28:12.624963,811.90478515625,749.4505615234375,802.2344360351562,783.6996459960938,776.0439453125
2024-01-08 17:28:12.625449,805.4578857421875,746.6300659179688,798.6080322265625,805.4578857421875,634.2124633789062
2024-01-08 17:28:12.625884,823.5897216796875,744.2124633789062,794.981689453125,788.5347900390625,608.02197265625
2024-01-08 17:28:12.626351,838.09521484375,744.6153564453125,796.5933837890625,780.0732421875,624.945068359375
2024-01-08 17:28:12.626849,831.6483764648438,748.6447143554688,801.8314819335938,811.098876953125,620.5128173828125
2024-01-08 17:28:12.627456,836.4835205078125,752.2710571289062,805.4578857421875,801.8314819335938,562.087890625
2024-01-08 17:28:12.627990,830.03662109375,752.6740112304688,804.6520385742188,807.069580078125,758.3150024414062
2024-01-08 17:28:12.628812,833.6630249023438,748.2417602539062,803.040283203125,825.6043701171875,995.2380981445312
2024-01-08 17:28:12.629688,842.12451171875,746.6300659179688,803.040283203125,802.6373901367188,767.5823974609375
2024-01-08 17:28:12.630202,842.12451171875,748.2417602539062,805.054931640625,774.8351440429688,619.3040161132812
2024-01-08 17:28:12.630784,848.1685180664062,751.4652099609375,805.054931640625,780.4761962890625,761.1355590820312
2024-01-08 17:28:12.631841,850.1831665039062,752.6740112304688,806.6666870117188,782.087890625,850.5860595703125
2024-01-08 17:28:12.634455,844.5421142578125,746.6300659179688,807.069580078125,759.120849609375,647.912109375
2024-01-08 17:28:12.635008,840.10986328125,747.032958984375,806.6666870117188,763.9560546875,603.99267578125
2024-01-08 17:28:12.635497,835.6776733398438,753.076904296875,806.6666870117188,776.4468994140625,647.106201171875
2024-01-08 17:28:12.640848,831.2454223632812,744.2124633789062,786.1171875,808.6813354492188,801.8314819335938
2024-01-08 17:28:13.475538,838.4981689453125,743.003662109375,790.952392578125,831.6483764648438,918.2783813476562
2024-01-08 17:28:13.480579,844.945068359375,751.4652099609375,798.2051391601562,840.915771484375,861.062255859375
2024-01-08 17:28:13.485437,841.7216186523438,758.3150024414062,795.7875366210938,832.4542236328125,800.2197875976562
2024-01-08 17:28:13.494056,841.7216186523438,757.912109375,796.1904907226562,834.8717651367188,823.99267578125
2024-01-08 17:28:13.499549,837.2893676757812,751.062255859375,799.4139404296875,846.959716796875,825.2014770507812
2024-01-08 17:28:13.517898,843.3333129882812,748.6447143554688,799.010986328125,850.1831665039062,804.2490844726562
2024-01-08 17:28:13.540807,842.5274658203125,746.2271118164062,796.996337890625,840.915771484375,707.1428833007812
2024-01-08 17:28:13.596081,838.901123046875,746.6300659179688,794.5787353515625,836.886474609375,791.3552856445312
2024-01-08 17:28:13.614997,842.5274658203125,749.047607421875,796.996337890625,842.930419921875,824.7985229492188
2024-01-08 17:28:13.627796,831.2454223632812,747.032958984375,797.8021850585938,832.4542236328125,562.087890625
2024-01-08 17:28:13.634539,836.4835205078125,748.2417602539062,795.3846435546875,843.3333129882812,547.5823974609375
2024-01-08 17:28:13.709616,835.2747192382812,751.062255859375,796.5933837890625,844.1392211914062,759.9267578125
2024-01-08 17:28:13.710802,830.4395751953125,751.4652099609375,797.8021850585938,838.09521484375,846.959716796875
2024-01-08 17:28:13.718277,832.05126953125,754.2857055664062,796.1904907226562,835.6776733398438,802.6373901367188
2024-01-08 17:28:13.743183,819.96337890625,754.6886596679688,794.1758422851562,813.91943359375,722.8571166992188
2024-01-08 17:28:13.763888,817.5457763671875,752.2710571289062,794.5787353515625,805.4578857421875,756.3003540039062
2024-01-08 17:28:13.797762,830.03662109375,751.4652099609375,796.1904907226562,811.098876953125,870.7326049804688
2024-01-08 17:28:13.816122,844.945068359375,760.3296508789062,796.5933837890625,834.06591796875,985.1648559570312
2024-01-08 17:28:13.827659,848.974365234375,766.3735961914062,801.8314819335938,862.2710571289062,834.8717651367188
2024-01-08 17:28:13.836103,854.6153564453125,762.7472534179688,809.084228515625,863.4798583984375,801.4285888671875
2024-01-08 17:28:13.847562,855.8241577148438,757.912109375,809.4871826171875,824.3956298828125,859.047607421875
2024-01-08 17:28:13.861556,846.959716796875,753.8828125,800.2197875976562,794.1758422851562,710.7692260742188
2024-01-08 17:28:13.887032,853.8095092773438,756.3003540039062,797.8021850585938,814.7252807617188,782.087890625
2024-01-08 17:28:13.910074,858.2417602539062,758.3150024414062,799.010986328125,839.7069702148438,823.99267578125
2024-01-08 17:28:13.915855,846.5567626953125,760.3296508789062,801.4285888671875,853.4066162109375,776.8497924804688
2024-01-08 17:28:13.949671,828.02197265625,760.7326049804688,802.2344360351562,834.8717651367188,721.6483764648438
2024-01-08 17:28:14.031227,829.2307739257812,758.7179565429688,804.6520385742188,820.7692260742188,722.4542236328125
2024-01-08 17:28:14.034012,837.2893676757812,756.3003540039062,809.084228515625,843.3333129882812,787.3259887695312
2024-01-08 17:28:14.042239,832.4542236328125,756.3003540039062,795.7875366210938,835.6776733398438,705.93408203125
2024-01-08 17:28:14.054544,854.6153564453125,753.4798583984375,796.5933837890625,849.7802124023438,784.5054931640625
2024-01-08 17:28:14.082365,871.94140625,757.106201171875,799.010986328125,880.0,961.3919677734375
2024-01-08 17:28:14.113002,853.8095092773438,755.8974609375,798.2051391601562,859.8534545898438,898.1318969726562
2024-01-08 17:28:14.118056,850.5860595703125,756.7033081054688,795.7875366210938,852.1978149414062,811.90478515625
2024-01-08 17:28:14.142034,864.6886596679688,763.1502075195312,794.5787353515625,869.120849609375,857.8388061523438
2024-01-08 17:28:14.157686,852.6007080078125,759.5238037109375,795.3846435546875,861.4652099609375,856.2271118164062
2024-01-08 17:28:14.173695,832.8571166992188,756.3003540039062,793.3699340820312,840.915771484375,670.0732421875
2024-01-08 17:28:14.179844,854.2124633789062,760.7326049804688,788.5347900390625,858.2417602539062,622.5274658203125
2024-01-08 17:28:14.204201,863.076904296875,762.3442993164062,794.1758422851562,867.106201171875,841.7216186523438
2024-01-08 17:28:14.209519,846.1538696289062,757.912109375,804.2490844726562,844.5421142578125,962.6007080078125
2024-01-08 17:28:14.236372,848.974365234375,752.6740112304688,807.87548828125,841.7216186523438,844.1392211914062
2024-01-08 17:28:14.330761,856.2271118164062,758.3150024414062,808.6813354492188,864.2857055664062,786.5201416015625
2024-01-08 17:28:14.332069,861.8681030273438,763.5531005859375,811.5018310546875,860.2564086914062,796.1904907226562
2024-01-08 17:28:14.336465,871.1355590820312,765.970703125,807.069580078125,846.959716796875,763.1502075195312
2024-01-08 17:28:14.401266,863.076904296875,763.5531005859375,799.8168334960938,848.974365234375,738.5714111328125
2024-01-08 17:28:14.402018,851.3919677734375,759.9267578125,801.4285888671875,851.7948608398438,802.6373901367188
2024-01-08 17:28:14.402426,861.4652099609375,759.9267578125,807.87548828125,857.8388061523438,920.6959838867188
2024-01-08 17:28:14.403118,861.4652099609375,761.5384521484375,815.1282348632812,867.5091552734375,916.6666870117188
2024-01-08 17:28:14.404213,838.09521484375,757.912109375,810.2930297851562,856.2271118164062,749.8534545898438
2024-01-08 17:28:14.404804,833.2600708007812,759.9267578125,802.2344360351562,850.1831665039062,647.912109375
2024-01-08 17:28:14.433149,846.5567626953125,764.3589477539062,803.4432373046875,872.3442993164062,805.054931640625
2024-01-08 17:28:14.447996,853.003662109375,763.1502075195312,807.069580078125,871.5384521484375,830.4395751953125
2024-01-08 17:28:14.471919,865.8974609375,763.9560546875,810.2930297851562,867.5091552734375,710.3662719726562
2024-01-08 17:28:14.596362,862.2710571289062,763.1502075195312,811.5018310546875,874.3589477539062,788.937744140625
2024-01-08 17:28:14.599447,833.6630249023438,759.5238037109375,812.3076782226562,868.7179565429688,788.5347900390625
2024-01-08 17:28:14.616824,831.6483764648438,761.1355590820312,812.7106323242188,870.7326049804688,759.5238037109375
2024-01-08 17:28:14.620849,840.10986328125,766.7765502929688,811.5018310546875,880.4029541015625,759.5238037109375
2024-01-08 17:28:14.637267,846.1538696289062,759.9267578125,807.87548828125,877.5823974609375,800.2197875976562
2024-01-08 17:28:14.680385,850.5860595703125,759.120849609375,806.6666870117188,855.4212646484375,840.915771484375
2024-01-08 17:28:14.698866,842.12451171875,760.3296508789062,803.8461303710938,845.3479614257812,767.9853515625
2024-01-08 17:28:14.708959,837.6923217773438,754.6886596679688,802.2344360351562,848.974365234375,642.6740112304688
2024-01-08 17:28:14.733345,844.945068359375,757.5091552734375,808.6813354492188,850.989013671875,775.6410522460938
2024-01-08 17:28:14.741975,845.7509155273438,760.7326049804688,809.89013671875,857.032958984375,1012.1611938476562
2024-01-08 17:28:14.767455,851.7948608398438,761.5384521484375,806.6666870117188,857.8388061523438,933.99267578125
2024-01-08 17:28:14.838736,840.5128173828125,755.091552734375,794.1758422851562,834.8717651367188,777.2527465820312
2024-01-08 17:28:14.846564,830.4395751953125,757.912109375,794.981689453125,835.6776733398438,692.2344360351562
2024-01-08 17:28:14.857514,832.4542236328125,746.2271118164062,801.4285888671875,804.2490844726562,805.4578857421875
2024-01-08 17:28:14.870832,835.2747192382812,743.003662109375,805.8607788085938,788.5347900390625,729.3040161132812
2024-01-08 17:28:14.898302,835.2747192382812,751.8681030273438,806.6666870117188,810.2930297851562,721.6483764648438
2024-01-08 17:28:14.935326,829.2307739257812,748.6447143554688,806.6666870117188,819.5604248046875,861.062255859375
2024-01-08 17:28:14.939713,846.1538696289062,753.8828125,807.4725341796875,818.3516235351562,929.1575317382812
2024-01-08 17:28:14.948341,869.120849609375,755.091552734375,806.6666870117188,815.93408203125,816.7399291992188
2024-01-08 17:28:14.974184,853.003662109375,756.7033081054688,798.6080322265625,819.1575317382812,636.2271118164062
2024-01-08 17:28:14.980274,855.4212646484375,751.8681030273438,801.025634765625,814.7252807617188,748.2417602539062
2024-01-08 17:28:14.980875,870.3296508789062,759.9267578125,805.4578857421875,819.1575317382812,821.1721801757812
2024-01-08 17:28:14.981453,850.1831665039062,758.3150024414062,799.4139404296875,809.084228515625,610.03662109375
2024-01-08 17:28:14.982012,850.5860595703125,749.047607421875,794.1758422851562,800.2197875976562,657.9853515625
2024-01-08 17:28:14.982892,875.5677490234375,757.912109375,799.8168334960938,804.2490844726562,762.3442993164062
2024-01-08 17:28:14.983564,890.4761962890625,753.4798583984375,800.2197875976562,802.2344360351562,747.4359130859375
2024-01-08 17:28:14.984122,882.4176025390625,754.2857055664062,793.3699340820312,810.6959838867188,732.5274658203125
2024-01-08 17:28:14.984644,872.3442993164062,749.8534545898438,797.8021850585938,812.3076782226562,725.6776733398438
2024-01-08 17:28:14.985134,876.3735961914062,753.8828125,804.6520385742188,802.2344360351562,834.06591796875
2024-01-08 17:28:14.985595,891.6849975585938,751.062255859375,807.4725341796875,822.3809814453125,869.120849609375
2024-01-08 17:28:14.986056,892.087890625,739.7802124023438,807.069580078125,815.1282348632812,615.2747192382812
2024-01-08 17:28:14.986511,884.029296875,756.7033081054688,799.4139404296875,797.3992919921875,641.8681030273438
2024-01-08 17:28:14.987102,869.5238037109375,762.3442993164062,792.1611938476562,809.89013671875,778.4615478515625
2024-01-08 17:28:14.987562,871.5384521484375,752.2710571289062,792.5640869140625,823.1868286132812,767.9853515625
2024-01-08 17:28:14.990402,895.3113403320312,752.2710571289062,794.981689453125,821.1721801757812,694.2490844726562
2024-01-08 17:28:14.993027,886.0439453125,747.032958984375,800.2197875976562,814.7252807617188,728.901123046875
2024-01-08 17:28:14.993542,870.3296508789062,750.2564086914062,805.054931640625,817.94873046875,825.2014770507812
2024-01-08 17:28:14.994209,842.12451171875,769.5970458984375,799.4139404296875,805.054931640625,667.2527465820312
2024-01-08 17:28:14.994810,836.08056640625,767.9853515625,792.1611938476562,784.5054931640625,587.4725341796875
2024-01-08 17:28:14.995301,876.7765502929688,746.2271118164062,798.6080322265625,800.2197875976562,776.4468994140625
2024-01-08 17:28:14.995753,883.6264038085938,750.6593627929688,799.8168334960938,833.6630249023438,883.2234497070312
2024-01-08 17:28:14.996205,850.5860595703125,774.8351440429688,795.3846435546875,827.6190185546875,873.9560546875
2024-01-08 17:28:14.996680,837.6923217773438,764.3589477539062,794.5787353515625,803.040283203125,838.901123046875
2024-01-08 17:28:14.997129,872.7472534179688,747.8388061523438,794.5787353515625,798.6080322265625,848.1685180664062
2024-01-08 17:28:14.997580,886.0439453125,768.7911987304688,792.1611938476562,799.010986328125,952.5274658203125
2024-01-08 17:28:14.998013,867.5091552734375,757.5091552734375,791.3552856445312,809.4871826171875,801.025634765625
2024-01-08 17:28:14.998447,858.6447143554688,751.062255859375,792.1611938476562,819.1575317382812,716.4102783203125
2024-01-08 17:28:15.001015,846.1538696289062,736.959716796875,793.3699340820312,800.2197875976562,843.7362670898438
2024-01-08 17:28:15.001532,850.5860595703125,733.3333129882812,795.3846435546875,788.1318969726562,886.4468994140625
2024-01-08 17:28:15.001985,886.8497924804688,748.2417602539062,796.1904907226562,806.2637329101562,799.8168334960938
2024-01-08 17:28:15.002776,871.94140625,753.8828125,792.1611938476562,816.3369750976562,737.3626098632812
2024-01-08 17:28:15.003289,853.4066162109375,758.7179565429688,793.7728881835938,823.99267578125,942.05126953125
2024-01-08 17:28:15.003755,846.959716796875,753.076904296875,799.8168334960938,809.084228515625,1035.5311279296875
2024-01-08 17:28:15.004226,844.5421142578125,740.989013671875,802.6373901367188,812.3076782226562,886.4468994140625
2024-01-08 17:28:15.004663,852.6007080078125,740.989013671875,805.054931640625,844.1392211914062,795.7875366210938
2024-01-08 17:28:15.005116,864.6886596679688,748.2417602539062,797.8021850585938,844.1392211914062,885.6410522460938
2024-01-08 17:28:15.005568,842.5274658203125,743.4066162109375,794.981689453125,815.93408203125,993.6264038085938
2024-01-08 17:28:15.006022,833.6630249023438,755.8974609375,794.5787353515625,801.025634765625,832.4542236328125
2024-01-08 17:28:15.006553,865.4945068359375,762.3442993164062,793.7728881835938,815.93408203125,720.8424682617188
2024-01-08 17:28:15.009104,864.6886596679688,747.8388061523438,801.8314819335938,820.7692260742188,747.8388061523438
2024-01-08 17:28:15.012417,857.032958984375,750.2564086914062,800.6226806640625,820.7692260742188,777.2527465820312
2024-01-08 17:28:15.012949,862.6740112304688,757.106201171875,800.2197875976562,840.5128173828125,767.1795043945312
2024-01-08 17:28:15.013429,880.4029541015625,761.94140625,799.8168334960938,826.8131713867188,784.908447265625
2024-01-08 17:28:15.013883,883.6264038085938,758.7179565429688,798.2051391601562,804.6520385742188,877.5823974609375
2024-01-08 17:28:15.014349,848.1685180664062,753.4798583984375,792.1611938476562,812.7106323242188,846.5567626953125
2024-01-08 17:28:15.014953,824.7985229492188,757.106201171875,787.3259887695312,810.2930297851562,702.7106323242188
2024-01-08 17:28:15.015747,856.2271118164062,749.4505615234375,796.5933837890625,823.1868286132812,811.90478515625
2024-01-08 17:28:15.016380,863.4798583984375,749.4505615234375,798.2051391601562,800.2197875976562,987.1795043945312
2024-01-08 17:28:15.016887,846.1538696289062,753.8828125,791.7582397460938,760.7326049804688,826.8131713867188
2024-01-08 17:28:15.017356,858.6447143554688,752.2710571289062,794.981689453125,778.8644409179688,778.05859375
2024-01-08 17:28:15.017838,855.018310546875,759.9267578125,795.7875366210938,785.3113403320312,878.7911987304688
2024-01-08 17:28:15.020516,844.5421142578125,765.5677490234375,792.967041015625,788.1318969726562,957.7655639648438
2024-01-08 17:28:15.021082,852.1978149414062,749.8534545898438,789.3406372070312,802.2344360351562,940.8424682617188
2024-01-08 17:28:15.023571,781.6849975585938,747.8388061523438,810.6959838867188,777.6557006835938,804.6520385742188
2024-01-08 17:28:15.650911,776.4468994140625,753.076904296875,805.8607788085938,778.4615478515625,666.8497924804688
2024-01-08 17:28:16.010072,754.2857055664062,753.8828125,805.4578857421875,780.0732421875,795.3846435546875
2024-01-08 17:28:16.158078,762.3442993164062,745.8241577148438,805.8607788085938,767.5823974609375,883.6264038085938
2024-01-08 17:28:16.198754,787.3259887695312,753.4798583984375,803.8461303710938,798.6080322265625,848.5714111328125
2024-01-08 17:28:16.395593,786.1171875,767.9853515625,803.8461303710938,826.00732421875,716.4102783203125
2024-01-08 17:28:16.400932,815.5311279296875,758.3150024414062,809.084228515625,812.7106323242188,735.7509155273438
2024-01-08 17:28:16.424401,844.945068359375,745.018310546875,809.89013671875,792.5640869140625,970.6593627929688
2024-01-08 17:28:16.433481,819.96337890625,747.4359130859375,803.040283203125,782.087890625,790.1465454101562
2024-01-08 17:28:16.468207,811.5018310546875,750.2564086914062,799.010986328125,789.7435913085938,638.2417602539062
2024-01-08 17:28:16.484418,816.3369750976562,751.062255859375,802.6373901367188,804.2490844726562,877.1795043945312
2024-01-08 17:28:16.507456,797.8021850585938,754.6886596679688,802.6373901367188,795.3846435546875,879.5970458984375
2024-01-08 17:28:16.592343,820.7692260742188,743.4066162109375,796.996337890625,803.8461303710938,718.02197265625
2024-01-08 17:28:16.598657,860.2564086914062,749.4505615234375,802.6373901367188,799.010986328125,828.02197265625
2024-01-08 17:28:16.608468,820.7692260742188,760.3296508789062,803.040283203125,781.2820434570312,844.5421142578125
2024-01-08 17:28:16.617264,776.8497924804688,754.2857055664062,801.4285888671875,772.0146484375,708.3516235351562
2024-01-08 17:28:16.619770,781.2820434570312,749.8534545898438,797.3992919921875,761.1355590820312,633.003662109375
2024-01-08 17:28:16.629033,794.5787353515625,751.062255859375,794.981689453125,805.054931640625,711.5750732421875
2024-01-08 17:28:16.660901,835.6776733398438,756.3003540039062,803.8461303710938,825.2014770507812,964.6153564453125
2024-01-08 17:28:16.689872,810.2930297851562,756.3003540039062,801.8314819335938,772.4176025390625,996.0439453125
2024-01-08 17:28:16.707782,766.3735961914062,753.076904296875,796.1904907226562,764.7619018554688,568.937744140625
2024-01-08 17:28:16.759771,776.8497924804688,740.1831665039062,799.8168334960938,804.2490844726562,447.6556701660156
2024-01-08 17:28:16.783076,809.084228515625,750.2564086914062,797.3992919921875,809.084228515625,681.3552856445312
2024-01-08 17:28:16.798208,840.10986328125,760.7326049804688,798.2051391601562,794.981689453125,698.2783813476562
2024-01-08 17:28:16.878809,808.6813354492188,749.047607421875,801.4285888671875,779.2673950195312,773.6264038085938
2024-01-08 17:28:16.879762,755.091552734375,745.4212646484375,799.8168334960938,761.5384521484375,883.2234497070312
2024-01-08 17:28:16.886228,772.0146484375,759.120849609375,806.2637329101562,789.7435913085938,825.6043701171875
2024-01-08 17:28:16.945466,877.1795043945312,753.076904296875,801.025634765625,830.8424682617188,968.2417602539062
2024-01-08 17:28:16.949521,887.6557006835938,748.6447143554688,794.5787353515625,839.3040161132812,1029.4871826171875
2024-01-08 17:28:16.957217,876.3735961914062,750.6593627929688,793.7728881835938,842.930419921875,949.7069702148438
2024-01-08 17:28:17.031843,853.003662109375,751.8681030273438,794.981689453125,829.2307739257812,834.8717651367188
2024-01-08 17:28:17.038200,847.3626098632812,753.076904296875,793.7728881835938,831.6483764648438,895.7142944335938
2024-01-08 17:28:17.049875,863.076904296875,758.3150024414062,788.937744140625,850.989013671875,990.8058471679688
2024-01-08 17:28:17.055422,863.4798583984375,757.5091552734375,793.3699340820312,827.2161254882812,875.1648559570312
2024-01-08 17:28:17.070900,844.5421142578125,746.6300659179688,792.1611938476562,800.2197875976562,916.2637329101562
2024-01-08 17:28:17.083872,855.4212646484375,739.3773193359375,787.3259887695312,796.5933837890625,1002.893798828125
2024-01-08 17:28:17.123825,845.3479614257812,738.5714111328125,783.2966918945312,793.7728881835938,859.4505615234375
2024-01-08 17:28:17.143766,820.7692260742188,738.5714111328125,775.6410522460938,808.2783813476562,921.5018310546875
2024-01-08 17:28:17.161953,826.8131713867188,743.8095092773438,774.8351440429688,819.96337890625,1020.2197875976562
2024-01-08 17:28:17.256414,815.1282348632812,741.7948608398438,778.05859375,807.069580078125,948.4981689453125
2024-01-08 17:28:17.257462,811.098876953125,735.7509155273438,778.8644409179688,810.2930297851562,834.8717651367188
2024-01-08 17:28:17.261967,825.2014770507812,737.3626098632812,786.5201416015625,826.8131713867188,778.4615478515625
2024-01-08 17:28:17.264154,825.2014770507812,738.974365234375,781.2820434570312,815.93408203125,777.6557006835938
2024-01-08 17:28:17.273277,810.2930297851562,740.1831665039062,772.0146484375,803.040283203125,925.1282348632812
2024-01-08 17:28:17.289111,808.6813354492188,741.7948608398438,778.05859375,831.2454223632812,1051.6483154296875
2024-01-08 17:28:17.323151,824.7985229492188,745.4212646484375,777.6557006835938,840.10986328125,1009.7435913085938
2024-01-08 17:28:17.331330,815.5311279296875,748.2417602539062,776.0439453125,822.3809814453125,1019.4139404296875
2024-01-08 17:28:17.349737,787.3259887695312,748.6447143554688,780.879150390625,811.5018310546875,911.4285888671875
