Timestamp,TP9,AF7,AF8,TP10
2023-12-06 17:33:15.054196,3.904005225067424,3.566136639701657,-45.95706808475289,-0.5582665875749001
2023-12-06 17:33:15.172052,-0.5858321373834589,3.4072993085642587,-29.75963725656589,-0.2674011110775831
2023-12-06 17:33:15.565472,-0.6590237314430946,2.432359828112386,-10.870220532851226,-0.4061852161256727
2023-12-06 17:33:16.213844,-6.710422506097612,2.321828185029636,-10.095120809693968,0.4478769937189887
2023-12-06 17:33:16.305890,-3.375361217567298,2.707484397387592,-11.595227873029948,-0.0963566660752414
2023-12-06 17:33:16.694476,3.985435745582418,2.928711537878852,-19.976936302910943,-0.9882776564358025
2023-12-06 17:33:16.908227,2.521494978378558,1.3276451950449113,-6.758994290181941,-0.6125883316269519
2023-12-06 17:33:17.221848,-1.9496908832468072,1.7096067888080413,-7.268518237921345,-0.0961064436916991
2023-12-06 17:33:17.423019,-10.528538570677188,4.646940842593572,-31.474152824110547,0.7747111602390524
2023-12-06 17:33:17.715109,-5.77114781900197,4.093198266220768,-28.48521739620292,0.2112536202844396
2023-12-06 17:33:17.891565,3.081542199904696,5.097884618380836,-40.22996894755022,-1.0450373736983176
2023-12-06 17:33:18.309749,-0.4599722461593409,6.728453222753663,-40.686086591681125,-1.0351689766411707
2023-12-06 17:33:18.840771,-0.0793496366722684,3.215914399878834,5.5223415194667504,-1.1116684863409712
2023-12-06 17:33:19.369808,-0.78939186029276,1.8471869689736933,16.621222875842356,-0.8609676367865425
2023-12-06 17:33:19.419376,0.8856927228089632,0.8053363532821947,13.86029805517768,-0.7150784989701245
2023-12-06 17:33:19.544953,1.5938095884333188,0.0907928811183525,8.945000493633401,-0.483279854378788
2023-12-06 17:33:19.875076,-7.605753488336607,5.80672938187564,-35.280220823460304,0.1048167502842066
2023-12-06 17:33:19.924009,-6.975902741933514,9.336305799759243,-51.8232777062221,-0.6596713864533394
2023-12-06 17:33:19.952024,-14.793195899653776,9.782389058145196,-42.98791277155637,0.0827926407972401
2023-12-06 17:33:20.094024,-21.02421752916269,9.60295795478417,-40.89430236413066,0.951676066857854
2023-12-06 17:33:20.287855,-1.113430589075182,4.186293660966473,-17.03774441493589,-0.7363693171767833
2023-12-06 17:33:20.418945,-1.992293407036986,1.383851477214613,-1.978974906384084,-0.1227514013118162
2023-12-06 17:33:20.458438,-10.877847728293649,4.478080875010111,-12.78101843189458,0.4294537432393492
2023-12-06 17:33:20.607750,1.324204587747159,6.37723590067285,-28.6582539833885,-1.4642702355873545
2023-12-06 17:33:20.682088,5.907120661238942,6.844985140512087,-42.61890663871568,-1.9145083251289632
2023-12-06 17:33:20.747350,9.19200657433816,6.907158798084858,-40.70672119365638,-2.4341356131248766
2023-12-06 17:33:20.931419,9.760908495904228,6.3298573297918646,-33.57838085811287,-2.506398168605845
2023-12-06 17:33:21.000986,4.06598858328666,4.360669467402564,-22.821768594566603,-1.375167092935979
2023-12-06 17:33:21.068994,-2.9739682578169675,2.769325646024094,-2.4973066644977058,-0.3953263631947872
2023-12-06 17:33:21.141805,-17.752763154965457,4.937180335112455,-4.342868508640837,1.0438883507347108
2023-12-06 17:33:21.300352,-13.92572907485978,5.552671068971401,-17.17631203860633,0.6275951034905981
2023-12-06 17:33:21.333445,-1.4579678471139488,4.345305354614245,-21.9905147976602,-0.6255142600723173
2023-12-06 17:33:21.524207,2.359030756981043,5.147455870836237,-29.679858201294667,-1.2171379446407655
2023-12-06 17:33:21.685773,2.80173214902244,2.794412917060721,-12.751449568422249,-0.9660298490784772
2023-12-06 17:33:21.789019,-11.080449463186628,3.7781062735866433,-4.604818655834978,0.4718330950570417
2023-12-06 17:33:21.891525,-9.741301573051134,8.080707851679062,-24.54471788613051,-0.5444417381379973
2023-12-06 17:33:22.339685,-9.365977491771371,0.3544863792801446,10.251024421377725,0.9174332488065304
2023-12-06 17:33:22.769823,-23.28859508190902,-6.9431345219714125,51.09150789898941,4.091815919532185
2023-12-06 17:33:22.848374,-1.5124520062249625,-3.627543225947784,30.706733718702573,0.5487210755216285
2023-12-06 17:33:22.946940,9.207364550703856,0.2710984871893782,6.739789029053018,-1.5526273769428
2023-12-06 17:33:23.256400,-5.4724668076543805,4.9320142744774,-8.940443651373718,-0.5546462001440984
2023-12-06 17:33:23.292341,2.2193329689804147,3.1300884357553937,-4.056429122935865,-1.1930815008613993
2023-12-06 17:33:23.569429,6.0512559871822935,-3.1420865205583994,11.689633817062598,-0.2028571756206282
2023-12-06 17:33:23.958839,2.088034746707375,-2.9462931285670724,7.756956062705102,0.3796195868600411
2023-12-06 17:33:24.193369,-4.793264328797231,-3.3534372176409875,15.184321344531677,1.2826057541271303
2023-12-06 17:33:24.409092,-3.0642030708007204,0.5482758781520227,-4.49131994325483,0.326996352202456
2023-12-06 17:33:24.567018,15.656390548712643,6.113720600365634,-35.432525364782464,-3.2232304505077
2023-12-06 17:33:24.721608,3.443211971968464,2.068362507314067,-9.88484571802356,-0.9081851774906972
2023-12-06 17:33:24.856587,-21.5989830312628,4.855825799417345,-9.922243294941987,1.7256847059216365
2023-12-06 17:33:26.454867,-19.70735854987248,11.22959273378116,-37.443315072118494,0.1860566819147161
2023-12-06 17:33:26.491879,-0.8904871038655566,4.265886365479947,-16.71621331475095,-0.8103725880432582
2023-12-06 17:33:26.592981,10.258284979824522,-2.5516500675462304,6.689431771011915,-0.8499427243582731
2023-12-06 17:33:26.633495,-8.56151295038525,0.1279763500098836,1.293086723353004,1.0788667363187558
2023-12-06 17:33:26.743263,-8.680252750999982,8.967958116734904,-29.89544411847965,-0.8394505261440764
2023-12-06 17:33:27.148327,20.8436779360102,12.106155674525391,-47.3828254075517,-5.471456485773221
2023-12-06 17:33:27.360579,21.61585600578332,0.5113469920631663,-7.491822915437431,-3.017530908685204
2023-12-06 17:33:27.451708,-2.152184107190419,-0.4133504054808428,2.058932507047045,0.334232045593229
2023-12-06 17:33:27.503263,-13.336220881822538,9.151346609144769,-26.709846792981,-0.3243176158043615
2023-12-06 17:33:27.572272,8.120930013118853,2.53057763853371,-11.548607394996688,-1.65993301651283
2023-12-06 17:33:27.875417,16.13025888622105,-0.4813018053755324,-3.981399402430023,-2.04030466563484
2023-12-06 17:33:28.303853,-9.702478365372178,6.57153817974126,-18.13924977635446,-0.2518290443962373
2023-12-06 17:33:28.624767,1.0762868609575884,4.679705955970938,-14.3078753823563,-1.2664923022754075
2023-12-06 17:33:28.667005,18.49307237808857,2.664088644723821,-13.05282661480737,-3.104252369393072
2023-12-06 17:33:29.271209,-4.421993014302472,3.9949663127728656,-11.344616320908669,-0.3670402934148737
2023-12-06 17:33:29.507769,-10.455135821221132,3.1026104315240097,-7.312801918465966,0.6443069882708846
2023-12-06 17:33:29.539782,-2.249282216230184,0.1079074555445924,-0.259415592718883,0.2436011409869765
2023-12-06 17:33:29.625037,-8.78668835306287,1.361216111416888,-3.2150258617562826,0.8417110666272412
2023-12-06 17:33:29.753684,-2.2240981026193176,2.985393642776074,-9.557951306079024,-0.4097422495137284
2023-12-06 17:33:29.897270,3.464367878810761,-5.013179292482253,17.075138100995076,0.5887402618290869
2023-12-06 17:33:29.931645,-16.548788119587428,1.760847834923107,-0.3718019325195359,1.7311673426230012
2023-12-06 17:33:30.020172,-14.728057669169734,9.818425838318923,-28.90895024474291,-0.2821976855982383
2023-12-06 17:33:30.124751,4.0071562788334765,-5.846569473750997,18.921481628473177,0.7213572087748558
2023-12-06 17:33:30.375943,-9.566775022146786,-5.44117806474972,17.818301771874406,2.5053071538783653
2023-12-06 17:33:30.664286,-6.096828947553903,-4.545072300606071,14.39995333686294,1.8339017421185124
2023-12-06 17:33:30.739610,14.05664607282995,-15.430987054955075,41.16727416046668,1.6932920266611091
2023-12-06 17:33:30.767615,-3.451106028610343,3.8136705286701886,-10.445413425938249,-0.4710967367751161
2023-12-06 17:33:30.873148,-14.901695624347935,15.967884194652376,-42.94876096013471,-1.7856627536304934
2023-12-06 17:33:30.917665,-11.236790003152732,4.143356662013017,-9.55577032779759,0.4886597253395794
2023-12-06 17:33:30.970786,-8.10316579678226,3.3847152202884745,-8.099560353110617,0.2486164993773735
2023-12-06 17:33:31.072519,13.3370612372884,1.020678893916545,-6.32829160281024,-2.0541364297577456
2023-12-06 17:33:31.130257,13.901939449650833,-2.165007467318102,2.7687668035691524,-1.385131027427883
2023-12-06 17:33:31.236053,-9.227288428679252,1.8190395782364928,-3.295194820587564,0.7641087732283987
2023-12-06 17:33:31.302524,-10.378284485642975,1.2554135071857997,-1.3887841426036056,1.0490651781936824
2023-12-06 17:33:31.353972,-0.7811068715084215,-2.131870264544713,6.152995261931735,0.562409565910667
2023-12-06 17:33:31.389042,0.3407401368221838,-4.98036944040452,14.141421976851824,1.0784843732747451
2023-12-06 17:33:31.666185,3.016415495766872,-5.66421646194383,15.48989852253868,0.8819627462683469
2023-12-06 17:33:31.775433,4.695256333163072,-5.63320935239175,15.003333996993463,0.6511858217502855
2023-12-06 17:33:31.827950,-5.650371269290883,0.4676521355547014,-0.2217753834967353,0.6036311945472836
2023-12-06 17:33:32.039416,2.891313545981109,9.875970796208238,-29.50406915539269,-2.731658838478982
2023-12-06 17:33:32.135407,11.219228591676815,-0.2797504633406443,-2.0500882518626207,-1.4681034169541696
2023-12-06 17:33:32.298305,-19.3735826118262,-13.193506650421703,42.61489333644922,5.622535596926619
2023-12-06 17:33:32.555570,2.719654267650128,-2.346495276068888,5.95413097687182,0.1465999909180886
2023-12-06 17:33:33.036201,44.995751412378326,8.9792553181576,-36.87468199281634,-8.128769232127253
2023-12-06 17:33:33.206449,-1.5825642459370284,5.212258882780048,-14.924950656470005,-1.0462432631214522
2023-12-06 17:33:33.256467,-22.846743483703207,0.5604243106712351,3.5920896902494954,2.872103267986262
2023-12-06 17:33:33.287820,2.798514953804472,1.0804877375510245,-3.988155853793829,-0.6643310918141494
2023-12-06 17:33:33.501578,-12.071137607678487,1.6070725836367026,-1.9898959208507745,1.1927721944022351
2023-12-06 17:33:33.562602,-16.816246642956344,1.822541385468144,-1.4884798680536468,1.7743495225219683
2023-12-06 17:33:33.589632,-6.747717582284449,3.4343043513398523,-8.541793884732535,0.0571201145634923
2023-12-06 17:33:33.988046,-6.784546161115277,0.6230305177739767,-0.3857810389429244,0.7188157472995993
2023-12-06 17:33:34.076221,-4.436292043599303,-0.3975346985700685,2.016836128726056,0.6445802458337428
2023-12-06 17:33:34.096229,-8.352992320832211,3.859910365174005,-9.389123095609676,0.1716000744998185
2023-12-06 17:33:34.421005,-2.46387535381502,-0.0629784067103909,0.584130535920427,0.3038730603098064
2023-12-06 17:33:34.751457,0.8436909259619809,-2.443390487041214,6.699737938914864,0.4195729871158191
2023-12-06 17:33:35.112402,-8.399788936722457,1.9509923499440944,-3.8409981101563377,0.6239331477540238
2023-12-06 17:33:35.340832,1.137418892667014,-0.6013227263395224,1.297088633326909,-0.0497592879032128
2023-12-06 17:33:35.499985,3.807075228736021,-0.9528420045297444,1.6853729603940315,-0.3230817461704183
2023-12-06 17:33:35.837814,-10.608100994468485,1.670797108480502,-2.499501410734932,0.9836228591263272
2023-12-06 17:33:35.944991,4.735257819222443,-1.2516702117585294,2.3358400679782925,-0.3767546201098786
2023-12-06 17:33:36.567095,22.845606372924657,-0.0059944125713846,-5.561159221722728,-3.079314331864718
2023-12-06 17:33:36.635289,4.762067049813656,2.425420731268562,-8.31996094559159,-1.2392127347625883
2023-12-06 17:33:37.076962,-2.967266772850916,-1.6828845363319669,5.416960270816855,0.7498514931008546
2023-12-06 17:33:37.414894,4.674154247228529,-4.538113231886994,11.882125576373772,0.3993787948374925
2023-12-06 17:33:37.855511,-2.1919440628496534,-2.593203442268122,7.875834706937976,0.8593962564252537
2023-12-06 17:33:38.145548,-2.2521276963555485,-0.8439620449048323,2.82430653782688,0.4588336583985097
2023-12-06 17:33:38.247505,-2.878629067918395,-2.4593626589989834,7.655805043789299,0.919702064197505
2023-12-06 17:33:38.357704,-8.235785845239889,-4.697543376195257,15.412422654983803,2.156004816255156
2023-12-06 17:33:38.402727,2.331528859270976,-4.118523723176416,11.23416025232111,0.6136395123549137
2023-12-06 17:33:38.461634,6.815503056830388,-3.2826127977791777,7.752651234955153,-0.1786658724327738
2023-12-06 17:33:38.535247,1.410549111671921,-3.546123016636538,9.79920675217724,0.6026991846044115
2023-12-06 17:33:38.917753,-4.724785668615346,-1.796736354958489,6.186566038766739,1.0110890816551714
2023-12-06 17:33:39.333853,-9.32417048485184,-0.0749994980971841,2.29022465317779,1.2214083434843543
2023-12-06 17:33:39.435927,-0.3632178842613486,-0.2999169767666303,0.8219887230952397,0.0807624344989068
2023-12-06 17:33:39.775980,3.000283231225008,-0.6609679182181313,1.0741628742982157,-0.2827109216946898
2023-12-06 17:33:39.881549,1.6943394405964185,-1.849725008312744,4.830703514449849,0.1689718046641224
2023-12-06 17:33:40.009938,11.17854414896152,-0.8757229456480332,-0.2352074274411612,-1.3214307511816934
2023-12-06 17:33:40.164009,12.998168755263602,-0.9220011979351446,-0.5292838599949145,-1.5528506927484302
2023-12-06 17:33:40.198017,4.909312475546403,-5.030272260650779,13.293186577488378,0.4840928864412964
2023-12-06 17:33:40.526480,-2.466227868517485,-1.419197952690784,4.580384687281677,0.6227250170100717
2023-12-06 17:33:40.565817,-5.099728097455441,1.9866406797135088,-4.661059593029799,0.1778417942169122
2023-12-06 17:33:40.625722,-6.774577549226608,-3.1075743610503936,10.4987874914985,1.591009945700216
2023-12-06 17:33:40.706747,-6.8834874496103655,-1.0596515028472238,4.593806118845917,1.1271712679209385
2023-12-06 17:33:40.794287,-1.5039417662112415,-0.1271025346167617,0.6204310029055297,0.1930411085021416
2023-12-06 17:33:40.963596,-1.0875864762346203,-4.237428555901278,12.434175459176776,1.09789284528273
2023-12-06 17:33:41.305948,4.8644961294064215,0.581936259746988,-2.936615186328996,-0.8204808086560453
2023-12-06 17:33:41.409009,8.83696510155476,-0.2333863827773822,-1.5123125943427354,-1.1589186765178736
2023-12-06 17:33:41.692415,-0.8671002068271625,-5.985100282738118,17.4546271643208,1.4770385108100796
2023-12-06 17:33:41.905715,2.9370379080702675,-1.0645207907771232,2.299392716374738,-0.1789546091262439
2023-12-06 17:33:42.124133,-1.3887975214144932,-0.8870763133551185,2.812951925798606,0.3557075291520707
2023-12-06 17:33:42.378739,-14.983853874822366,-7.12751270402477,24.11764283273813,3.6239689879303136
2023-12-06 17:33:42.845709,-1.2360848514275429,-5.198048275087645,15.273476101714875,1.3426164272130576
2023-12-06 17:33:42.968490,3.4706756204233127,-1.408610144276244,3.181817421442362,-0.169325221608793
2023-12-06 17:33:43.157992,-10.743865060558196,-0.7069033263066776,4.5188118973214095,1.5596656761956071
2023-12-06 17:33:43.285573,-8.764122210325736,-0.3698221831587557,3.076106826350005,1.2173685565046826
2023-12-06 17:33:43.404139,1.161495833340045,-1.7402045446680636,4.698405127754008,0.2158624346442995
2023-12-06 17:33:43.739684,1.4358468472910324,-1.8397110287768617,4.924638636785324,0.2026502891829795
2023-12-06 17:33:43.857233,-2.4797073212835143,-0.0073939446496119,0.5460415410652989,0.2960797207120486
2023-12-06 17:33:43.948764,1.531228553157096,0.3406329123240827,-1.4095958636967345,-0.3192543776437825
2023-12-06 17:33:44.151467,4.948623241207387,1.3234565145543042,-5.063935679060669,-1.0038472484686467
2023-12-06 17:33:44.213298,2.5808605437630936,1.5295658013064035,-5.097404122791607,-0.7366265753045589
2023-12-06 17:33:44.268310,3.316113157270089,0.3303955626636158,-1.7942419593118362,-0.5543222615693943
2023-12-06 17:33:44.369673,1.6981002919029191,0.8687806427582313,-2.96810981627602,-0.4645645695549852
2023-12-06 17:33:44.504636,-4.526870386673492,-0.389220753538812,2.154227453751024,0.6583215210608804
2023-12-06 17:33:44.709527,-7.438149978182357,-0.4747956128298121,3.0945442275478063,1.0660561999643217
2023-12-06 17:33:45.017108,-3.1400023432679567,1.4754135347915862,-3.5715228622319146,0.0381842425242751
2023-12-06 17:33:45.127398,-0.419830752595027,-0.6492178307697308,1.94276904186496,0.1723665582586765
2023-12-06 17:33:45.608031,-2.085295153236092,0.4325039470488158,-0.7942898128535736,0.1415096797252634
2023-12-06 17:33:46.226710,-0.2609509322368867,1.834476992025638,-5.2859711271333705,-0.4288733627463814
2023-12-06 17:33:47.166734,-1.3487852367440034,-2.586665909686338,7.784270690737661,0.7488798556127352
2023-12-06 17:33:47.402791,-1.124235578106429,-0.9286998141935192,2.9297581406236435,0.3317244390876295
2023-12-06 17:33:47.575971,1.6942412832379543,2.039245127582356,-6.33483450276898,-0.7368709997957817
2023-12-06 17:33:47.729918,-1.00811930188008,0.14372084158536,-0.2000743907029629,0.0658606146138004
2023-12-06 17:33:47.864029,5.21325834651709,1.915213096356212,-6.804196772238991,-1.176370448325268
2023-12-06 17:33:47.944281,9.94421984115687,1.572028095714671,-6.928163072628144,-1.726123203189477
2023-12-06 17:33:48.290315,1.155200185472511,-1.5955574730816346,4.334016674864412,0.1842863627964105
2023-12-06 17:33:48.392691,-1.057221693081727,-0.0907467278611687,0.5002856447306251,0.1274158953761205
2023-12-06 17:33:48.797230,-0.2709128136584407,0.6376435008691175,-1.79421541391897,-0.1473932681727935
2023-12-06 17:33:49.086132,-1.957654389401036,-0.1388332999853025,0.8573179688143738,0.2586671351517653
2023-12-06 17:33:49.278666,-0.6649054077478157,0.4810478670927062,-1.2428519013056434,-0.0582344112084293
2023-12-06 17:33:49.937678,0.6119639373650759,-0.4008636506308465,1.012037598096233,-0.0221872248634444
2023-12-06 17:33:49.988574,0.5999400711693946,-0.939620254024362,2.577922914426801,0.1053257939211039
2023-12-06 17:33:50.112289,-4.227762901765278,-0.3834130871746464,2.1119237962101547,0.6183086817208496
2023-12-06 17:33:50.158929,-2.5428923123638696,-1.2666671584559237,4.2738920458524685,0.6003349160399488
2023-12-06 17:33:50.186844,5.329361318929774,-1.369583855726498,2.709132866747328,-0.4238620891276187
2023-12-06 17:33:50.297756,0.8656167766811506,-0.2858230752681824,0.6281953233393198,-0.0825915272202581
2023-12-06 17:33:50.919777,-0.3903788276879404,-0.4794182825835775,1.4883925656114818,0.1299308152255603
2023-12-06 17:33:50.967658,5.020518391796643,-0.7012674489323912,0.8511131293269327,-0.5387268592105219
2023-12-06 17:33:51.251869,-0.1437031490339109,-0.1802091825867096,0.566323448281336,0.0272697900950395
2023-12-06 17:33:51.362536,-2.1559670534112048,-0.3235612761657642,1.4599103885278537,0.3287565147015631
2023-12-06 17:33:51.562986,0.5467536677709658,-0.5215432422227886,1.3948163262978632,0.015145477147106
2023-12-06 17:33:51.594973,-2.283275333368873,-0.1241128086828634,0.915109558325922,0.2991916155706489
2023-12-06 17:33:51.618988,-1.2894586957576903,-0.3815788015202033,1.427051084374223,0.227035033573752
2023-12-06 17:33:51.806177,0.2906471824139722,-0.9107207611434724,2.587208742482474,0.1402716619414833
2023-12-06 17:33:51.897460,-1.518836889787694,-0.4530923877132279,1.691135828922964,0.2743517035173557
2023-12-06 17:33:52.022757,-0.2586269194816741,-0.3460749335209234,1.083707377267085,0.081569055972375
2023-12-06 17:33:52.085007,0.568112244093885,-0.5232143472958954,1.4022204082647134,0.0128888517913331
2023-12-06 17:33:52.163194,0.0214735747756605,0.2555472340730754,-0.7236659365710288,-0.096220055154243
2023-12-06 17:33:52.206659,-0.4131351778031997,-0.2127502118443723,0.7371155706384698,0.0710779755754694
2023-12-06 17:33:52.486725,-0.3759104806438498,-1.4388430867021256,4.281722263516706,0.3525732297982424
2023-12-06 17:33:52.772090,0.8916788238636676,-0.5187477234168236,1.3163605630290605,-0.0311450044860097
2023-12-06 17:33:52.941113,-0.4220008553424874,0.319616157948421,-0.800798032176259,-0.0520439082476208
2023-12-06 17:33:53.010571,-0.9598252778597948,-0.1701718156952524,0.7464208018074189,0.1340117375853853
2023-12-06 17:33:53.167968,1.0519083095790915,-0.0275840605077708,-0.142650077504824,-0.1671695307983786
2023-12-06 17:33:53.354182,0.9319080735232792,-0.0211213609075971,-0.1324048954701052,-0.1526857007974587
2023-12-06 17:33:53.464907,0.316157377761989,-0.2909107460116737,0.795626739643979,-0.007652885698508
2023-12-06 17:33:53.553824,-0.7487568813379326,0.0403951915847083,0.0883502111261631,0.0567671615792208
2023-12-06 17:33:53.845930,-1.0104309283650212,0.0126788803240804,0.2309706590404989,0.0980956016084479
2023-12-06 17:33:54.094781,0.7658371655079415,0.0455119154014017,-0.2846755658383796,-0.1460999414620082
2023-12-06 17:33:54.352768,0.8347424487672147,0.2195161364619297,-0.8049820155573217,-0.1959201363462279
2023-12-06 17:33:55.123425,1.112446659348718,-0.2693660033522018,0.5458488039125807,-0.1186887290104902
2023-12-06 17:33:55.180248,0.9666953637656344,-0.7579322609748195,0.3449437276324245,0.5377131776680181
2023-12-06 17:33:55.359356,-1.5124957549712543,0.528219940059939,-0.0100438041680158,-0.1830064450129151
2023-12-06 17:33:55.458747,-0.0465108129786126,0.5628946276115602,-0.3347170037990866,-0.6518608602780541
2023-12-06 17:33:55.493753,0.7996412401736054,0.3622894338353475,-0.3738386805565347,-0.6741534609168088
2023-12-06 17:33:55.618318,0.4786056400785972,-0.2888999176096878,0.1298343403869074,0.1529386205942975
2023-12-06 17:33:55.709786,0.6543303105238516,0.277320409353112,-0.2869936774830841,-0.5358749077786479
2023-12-06 17:33:56.161386,0.0046330950689805,0.790201058959335,-0.4983153658675945,-0.9226302441124274
2023-12-06 17:33:56.209716,1.1613526259573952,-0.8166519614316877,0.3439686300225411,0.5468402446640243
2023-12-06 17:33:56.625550,0.7619387943736595,-0.7428696661654584,0.376338061206816,0.5809376134817814
2023-12-06 17:33:56.696309,-2.1966283857708184,0.6691100349955019,0.0351617795282316,-0.1408168099202662
2023-12-06 17:33:56.810483,-0.1831977318143257,-0.1345405287712683,0.161361465202764,0.1734294224679009
2023-12-06 17:33:57.177090,2.6207241915912456,-0.7889014581656402,0.0247000009751748,0.0878713820150513
2023-12-06 17:33:57.275136,-0.8536720506273404,0.5620190369042601,-0.1694525265182264,-0.413901464055871
2023-12-06 17:33:57.328466,-1.8795191348459523,0.5127015796471472,0.0743463115396418,-0.0575543770551739
2023-12-06 17:33:57.541976,2.097673101624659,-1.3882443707872425,0.5344499409281109,0.9159888441102916
2023-12-06 17:33:57.576364,0.6971712504757518,-1.216022364804479,0.7063021108113934,1.1328405671169413
2023-12-06 17:33:57.762091,-0.4012400963311799,-1.1732627113671743,0.9030698976332212,1.406838860324216
2023-12-06 17:33:58.019576,2.881584379581785,-1.8179197165569736,0.6613444347262606,1.169967658403792
2023-12-06 17:33:58.159745,0.5032835644774802,0.7516569477073611,-0.5774244726144341,-1.024820698098474
2023-12-06 17:33:58.231645,-0.7925931114183267,1.4813427688362233,-0.8018847368287246,-1.466083572293733
2023-12-06 17:33:58.398656,0.8328665018627037,1.0690696429773825,-0.8591967370066758,-1.4785564192101062
2023-12-06 17:33:58.512118,-2.7507834261962896,4.05799798092328,-2.132149071125926,-3.7919214556276017
2023-12-06 17:33:58.562748,-2.434371029629505,2.820686563310621,-1.365802881051511,-2.491944836130246
2023-12-06 17:33:58.879978,1.4533405670899238,-0.8563877444237152,0.3065063718638403,0.50699556842618
2023-12-06 17:33:58.955558,-0.3027265262687738,0.8120038197660446,-0.4544591337349564,-0.8558801843696199
2023-12-06 17:33:59.189070,-1.949867406171066,1.864951970151906,-0.824113286100893,-1.5579762981967522
2023-12-06 17:33:59.285681,0.4723515588638221,-0.0482986414312992,-0.0362982228590798,-0.114611354993716
2023-12-06 17:33:59.366643,0.077840582805218,0.9937475357158256,-0.656134253512135,-1.171705846329683
2023-12-06 17:33:59.468003,-3.271504688787184,2.269397734367653,-0.825644299770636,-1.625360414437893
2023-12-06 17:33:59.616404,-1.6045263112625463,0.0127448658634181,0.3482139060078711,0.4259719124297702
2023-12-06 17:33:59.708374,0.308103146204461,-0.7392542506645726,0.460098949719296,0.7117157056561008
2023-12-06 17:33:59.874233,-1.9757212077928867,0.3132605357272434,0.2215247656867223,0.1968065766775723
2023-12-06 17:34:00.068894,-1.3866503515745363,0.5345143481486941,-0.04879979279469,-0.2248168668748675
2023-12-06 17:34:00.097211,0.5519279705570779,1.7697240648665349,-1.2781381684580635,-2.1833784832605008
2023-12-06 17:34:00.216613,0.6754863800324925,1.2989327357390088,-0.9875904058340016,-1.6895726995737426
2023-12-06 17:34:00.368420,-0.3038256829410602,-0.5673082813991744,0.4676992227107194,0.6982534964962539
2023-12-06 17:34:00.437412,-3.456537530296309,1.83189853659849,-0.4976137574248304,-1.0776506114556896
2023-12-06 17:34:00.630460,-3.917484054871444,2.8038308126654115,-1.056788721081471,-2.036317146531873
2023-12-06 17:34:00.735897,1.752875859607732,-1.7544029172213012,0.8412323549587378,1.4317834158455744
2023-12-06 17:34:01.124556,1.985939535077964,0.140800579648083,-0.4812656316659828,-0.7695541550432128
2023-12-06 17:34:01.248248,-7.090060716151363,8.765603830830933,-4.4140729562371,-7.815946628106896
2023-12-06 17:34:01.355835,-6.50422844499644,7.425936650732951,-3.634543734303037,-6.479697325661936
2023-12-06 17:34:01.452340,0.6569943572922279,-1.6164666089309656,0.971355479958038,1.5984519070694736
2023-12-06 17:34:01.705880,-0.8433314154929796,-0.4043039184697222,0.4642785601876118,0.6741591001002621
2023-12-06 17:34:02.179525,0.0023340173444891,6.251604606413826,-4.184452534659414,-7.065204834073114
2023-12-06 17:34:02.449531,0.8677384909942898,1.8939450461410767,-1.4336570467770935,-2.4140110157035783
2023-12-06 17:34:02.704090,-0.5538291958663044,-2.9669083039383435,2.1254832198289697,3.4741054446606503
2023-12-06 17:34:02.899379,4.295398794256428,0.6046243245153873,-1.272821718968613,-1.967488509502059
2023-12-06 17:34:03.058913,0.8821421943633487,-0.3296829694391757,0.056179705177774,0.0850716210744585
2023-12-06 17:34:03.493299,-2.9017813411782103,-0.7259430209791902,1.0996772898434906,1.6407144386799792
2023-12-06 17:34:03.567622,-0.9493919331431688,3.8444600620203273,-2.374660242835982,-4.075789710295767
2023-12-06 17:34:03.647031,-10.19935895421563,2.103511115208789,0.6963184741643808,0.5960404298784748
2023-12-06 17:34:03.881355,-4.433521955791583,0.1307704895140572,0.8365673210400983,1.126068560018116
2023-12-06 17:34:03.945881,9.61126376336538,0.864026199530977,-2.5439875403792955,-3.817064148058721
2023-12-06 17:34:04.053551,-3.241120390831071,0.2868286026791489,0.4851601508255223,0.6011511450832869
2023-12-06 17:34:04.203989,-7.1624243083723504,1.5591751042267203,0.4351858662985837,0.3189791805572874
2023-12-06 17:34:04.388319,1.7527625229213486,0.5743403794220122,-0.7360358236619211,-1.1863301980448726
2023-12-06 17:34:04.632810,-3.522861183766067,-0.1400180749931487,0.8278788420156346,1.164731626944116
2023-12-06 17:34:04.922834,-2.7308180696663302,-0.5012178579318676,0.9071626548916062,1.3392303074597824
2023-12-06 17:34:05.116382,-1.0729525081784677,-3.9962388817677454,2.9151036495586875,4.787145515055163
2023-12-06 17:34:05.378683,-3.8753516470708345,0.1629336671310329,0.6945243972811784,0.9276370432833488
2023-12-06 17:34:05.568063,2.2101855577082428,5.334167046066464,-4.033328968758622,-6.676978423963801
2023-12-06 17:34:05.644194,5.249872976391679,1.307744081626624,-1.9522090427509613,-3.03609739173884
2023-12-06 17:34:05.911893,6.004434567270524,-7.833042205881403,4.036625294577522,7.0312740733583
2023-12-06 17:34:05.992123,5.527578521616635,-17.164199876175918,10.406552865915996,17.673975370857814
2023-12-06 17:34:06.070988,-2.488952942291144,-10.24248771952821,7.400701343285416,12.233891670760686
2023-12-06 17:34:06.288004,-7.653523490545281,4.367420756040657,-1.3595736493838568,-2.6958635774181063
2023-12-06 17:34:06.342386,-7.364044315847237,3.9997692503179065,-1.1726572651809957,-2.3667473122349767
2023-12-06 17:34:06.391567,-8.175514783863601,-0.7166425834973027,2.1639077639808537,3.179927435073417
2023-12-06 17:34:06.516727,-10.690656737060674,4.868424111274053,-1.0742392545642705,-2.368724013211002
2023-12-06 17:34:06.555852,-10.1112505105855,14.379407464164752,-7.587575206140283,-13.24353378515907
2023-12-06 17:34:06.692455,-3.580567947682769,-1.2208358670746724,1.5561766076858268,2.400707064726499
2023-12-06 17:34:06.886046,4.450376719493857,-22.03371947679485,13.89561390980131,23.472161495977645
2023-12-06 17:34:06.972617,5.4109646152872335,-0.0438285394829658,-1.0846956479321097,-1.560073609387162
2023-12-06 17:34:07.041852,2.5424449077286377,12.06717766419807,-8.637087326356664,-14.350401078690451
2023-12-06 17:34:07.254574,3.677133369182072,-13.452447542521911,8.283894286611197,14.04074404255767
2023-12-06 17:34:07.506973,7.978825427502764,-21.44956083111116,12.774829083018702,21.78081143159661
2023-12-06 17:34:07.645577,15.373413978078142,-17.660530075450705,8.707078524249212,15.348109637968284
2023-12-06 17:34:07.737166,17.443676087424222,-23.24907152583537,12.037599271339266,21.03146621812968
2023-12-06 17:34:07.800470,24.39254131072236,-31.226063333919686,15.970890857205609,27.97271930361088
2023-12-06 17:34:08.243400,34.61009825283566,-32.337983046406414,14.61742919794486,26.228581202083337
2023-12-06 17:34:08.382602,24.741509331809013,-26.862887067833213,12.964783041446196,22.959755506447507
2023-12-06 17:34:08.471023,26.46972704467873,-31.159367759419936,15.497083284198675,27.28911277597512
2023-12-06 17:34:08.632081,31.716141613075507,-29.336048166687004,13.19233512414392,23.698764751319924
2023-12-06 17:34:08.846770,16.52670364320665,-18.183560578743016,8.816944357112042,15.599829385728082
2023-12-06 17:34:08.886114,12.144482967459668,-9.821641363450825,4.095997314844584,7.473099994138984
2023-12-06 17:34:09.186899,4.194250587366222,-1.6814942985033472,0.2575545229973414,0.6421405398252616
2023-12-06 17:34:09.333518,2.575662170482268,-6.53397266860732,3.8515974424149735,6.578589209240043
2023-12-06 17:34:09.623522,8.941460868198227,-4.706414654303297,1.3139514785644522,2.6552514619431107
2023-12-06 17:34:09.777628,-5.3748103034687285,0.9429131752122056,0.4584844925610724,0.4943807090084373
2023-12-06 17:34:09.882222,-3.573270478342215,-4.786020675004781,3.938715231093093,6.414522105955236
2023-12-06 17:34:09.935186,3.5545714799073203,3.2755312379737247,-2.946184688988389,-4.748941750887354
2023-12-06 17:34:10.122312,1.3505866800671222,-3.856520647027036,2.300624968722666,3.924913186098276
2023-12-06 17:34:11.305826,-0.1667241404332709,-13.96359176348163,9.40617956466566,15.745968327806777
2023-12-06 17:34:11.908553,-9.950643375859102,6.692859464948731,-2.469029088658919,-4.635118106309083
2023-12-06 17:34:12.012049,3.833378224445423,7.789252827224403,-6.039927854667843,-9.910565486200843
2023-12-06 17:34:12.300104,8.697646836834512,-0.4533419335853336,-1.499435841401902,-2.059190354591404
2023-12-06 17:34:12.468051,-11.793967563718928,7.4941009246325585,-2.6303018288486184,-4.996095350164823
2023-12-06 17:34:12.569612,-7.094653349002765,8.090077340191105,-3.9973832444856265,-7.04463246319466
2023-12-06 17:34:13.077476,-7.959146980246057,6.5927318263731385,-2.813612557962192,-5.105698378620001
2023-12-06 17:34:13.425098,-16.471298844449805,8.476468989455176,-2.330678167082338,-4.730026326191748
2023-12-06 17:34:13.516298,-6.464593627930561,12.588055192739066,-7.151947821474705,-12.291724506413493
2023-12-06 17:34:14.063664,-4.193726993770989,13.07232573714929,-7.944709096879193,-13.502513480879282
2023-12-06 17:34:14.345460,-8.977173520741548,14.402060195993814,-7.855764043307016,-13.596565283964622
2023-12-06 17:34:14.614727,-5.995412958147216,17.376432199353758,-10.46853034432158,-17.818537195878253
2023-12-06 17:34:14.766146,9.139954981019038,2.7178105100586603,-3.726155968584553,-5.757150985011904
2023-12-06 17:34:15.722748,21.88789258337356,-4.793466048571728,-1.297645445047846,-1.040472286676102
2023-12-06 17:34:15.979562,13.628303128091911,1.9520411411026428,-4.134725939344424,-6.211052977409009
2023-12-06 17:34:16.062417,-5.967038153543945,5.711970185596956,-2.6347161982475304,-4.697524020493554
2023-12-06 17:34:16.184265,-18.94748507184776,14.274151196048315,-5.722593055615292,-10.528698043911689
2023-12-06 17:34:16.241624,-6.1652024203220375,5.918264369197607,-2.733311946718921,-4.87145237889487
2023-12-06 17:34:16.948319,10.687049294911954,-3.131928299545588,-0.1138786823299629,0.3739344738740049
2023-12-06 17:34:16.977333,-1.470075913648259,10.21739304998405,-6.588977222489986,-11.086828292487466
2023-12-06 17:34:17.145158,-13.653381758856668,10.951537581747813,-4.578444460856139,-8.340881846159062
2023-12-06 17:34:17.185687,-5.636832696201957,8.524943142740723,-4.595304773434967,-7.960046161035721
2023-12-06 17:34:17.314148,-2.92899141525732,5.502612424625984,-3.1204599885785904,-5.352147062318032
2023-12-06 17:34:17.470580,-11.12934423994728,-3.3314686881425497,4.503413532334343,6.9955033363300805
2023-12-06 17:34:17.639074,-0.5302241177963808,3.961656405312461,-2.57808615838762,-4.32094386259741
2023-12-06 17:34:18.313821,12.555288452934494,-0.1477010753794064,-2.50562324992078,-3.5323294305606843
2023-12-06 17:34:18.479284,-6.909035406995594,-4.011624118935068,4.092579461387028,6.52378060793472
2023-12-06 17:34:18.510290,-10.207657769574803,6.046611909414605,-1.9909245143922083,-3.830079013473202
2023-12-06 17:34:18.597370,5.161793284696502,1.8519681750743124,-2.330547845356674,-3.615143945469395
2023-12-06 17:34:18.618367,-9.180983183197249,20.009827057148573,-11.588626589699295,-19.847366282454608
2023-12-06 17:34:18.844794,-7.613130357546918,30.383088328701607,-18.884163183055875,-31.98268742959087
2023-12-06 17:34:19.048951,14.080624457947753,-1.980326848135279,-1.5879682346338626,-1.9166620517923008
2023-12-06 17:34:19.131498,-0.0186595198404446,-2.6704653168822,1.7740447023874728,2.994109750897715
2023-12-06 17:34:19.371188,-14.67206947374776,2.2189616587121908,1.499255897297301,1.7872583064484078
2023-12-06 17:34:19.505437,6.416746585401886,-13.346120968166492,7.627597102022595,13.123244664556877
2023-12-06 17:34:19.631495,20.010822713657344,5.657657229935815,-7.6145379228872,-8.805975122571729
2023-12-06 17:34:19.782523,8.951453815499677,14.633524985643913,-11.551780464659693,-16.990536160205696
2023-12-06 17:34:19.817547,16.469573605825975,-2.6584986520535185,-1.781336026169122,-0.893668198850715
2023-12-06 17:34:19.876405,10.894541520408875,-2.651051513907757,-0.5521994252534737,0.5200198768197037
2023-12-06 17:34:20.078951,-17.5030467787024,-0.2742058589580578,4.194716203430043,5.539193757060895
2023-12-06 17:34:20.177976,-10.923465571354908,-0.2243417160929163,2.567304176172506,3.2649954645125345
2023-12-06 17:34:20.210159,-1.7994878215788517,5.526609943666305,-3.0890722987687456,-4.554616788622452
2023-12-06 17:34:20.235462,-10.024912760237074,5.575406021894781,-1.105501255145141,-1.916384896744172
2023-12-06 17:34:20.271052,3.814852200663967,-1.6976116648048407,-0.0036292169377741,-0.1590895786609466
2023-12-06 17:34:20.396924,1.5325092939359228,-10.686199609463236,6.178615188279805,8.863073923018163
2023-12-06 17:34:20.479453,-1.0290720935869602,-18.91677495879059,12.262566761421107,18.23025393027904
2023-12-06 17:34:20.943102,32.26629808422922,-25.999207362019018,9.657513501925065,17.781097891241412
2023-12-06 17:34:21.272263,22.03435800744585,-22.101588857548503,9.983105125299836,18.514537605917376
2023-12-06 17:34:21.391024,-1.969392846472577,-14.921835997013735,10.37853890586216,16.012224297834095
2023-12-06 17:34:21.694439,19.48548795850701,-13.96261142745307,4.195077145734716,7.269625833588128
2023-12-06 17:34:21.848331,7.605066090248641,-3.877118345466737,0.2970563169447557,0.2132708447433616
2023-12-06 17:34:22.099329,-9.75658970909072,0.0576487435192701,1.7035400485590677,0.578767662774201
2023-12-06 17:34:22.224154,5.383407440043698,0.0722403333793128,-1.4376751525568696,-1.9126501512905447
2023-12-06 17:34:22.589400,-18.95878918491625,19.602296090012704,-8.076097734648366,-13.54142328844297
2023-12-06 17:34:22.620391,-33.98808734832407,23.15817593340888,-7.433093545038864,-15.278747536267463
2023-12-06 17:34:22.739126,-0.1344581520502113,12.002216141841645,-8.585731630642922,-14.514184674240054
2023-12-06 17:34:22.819891,4.984193344029705,13.529464082283685,-10.409222197470347,-16.03480039228554
2023-12-06 17:34:22.938738,-14.73519305672547,5.849744094055652,-0.7372138940765688,-3.535408485028466
2023-12-06 17:34:23.005290,-11.535486425882953,1.8593359479861231,1.2394752270817522,-0.0032789768752226
2023-12-06 17:34:23.126834,-1.8862121481736949,7.563258370593575,-3.865740998871745,-4.95975494679217
2023-12-06 17:34:23.556081,-6.256069980847329,3.732765253202399,-0.7225879081153133,-1.4000627979110127
2023-12-06 17:34:23.638111,-11.744932676099012,8.217503401150264,-2.616470695153144,-5.483255103479641
2023-12-06 17:34:23.741686,-19.49553709276921,18.44218765643049,-6.525952452454991,-10.905760403068
2023-12-06 17:34:24.158332,-19.602902768427228,16.51714218297242,-6.035128952836868,-11.595297445580588
2023-12-06 17:34:24.264458,9.410480699846085,-0.333188021017088,-1.502975460613342,0.4076088338728824
2023-12-06 17:34:24.324618,18.666319120115062,-12.029308440486618,5.89973240613844,16.322283451188028
2023-12-06 17:34:24.382181,-0.8216567662359094,0.4850332679312016,0.808907713927542,2.623528275800129
2023-12-06 17:34:24.444688,-3.5666977118888505,6.491580823538749,-3.683438098647069,-6.6899142569170245
2023-12-06 17:34:24.542606,-9.347030678494594,3.794810696084805,0.6305543209650122,0.8653678146651654
2023-12-06 17:34:24.614316,-11.074934196058196,6.456536776241444,-0.8462582013118547,-1.7351849434581146
2023-12-06 17:34:24.765976,-0.1405700981125389,1.325021032962476,-0.4141022904037705,0.5122255034456861
2023-12-06 17:34:24.833993,-1.4028483760516657,3.0629193620006605,-1.5452089683101302,-2.1702976005690107
2023-12-06 17:34:24.937780,8.527684992310554,6.715776731827439,-5.628860081959295,-4.93802672949249
2023-12-06 17:34:25.015306,15.977492215817742,0.9841721725070304,-0.4421393604634266,10.479544003469067
2023-12-06 17:34:25.547553,1.7875214813907991,-3.115410364164186,5.268831820781886,15.071643418515782
2023-12-06 17:34:25.624318,-0.2134121216929753,-10.880411476675857,6.1144211187129525,6.998563924749467
2023-12-06 17:34:25.842502,8.962594756892932,-16.90379474432224,7.949048088296239,12.01141330921088
2023-12-06 17:34:26.042898,17.404268076235667,-22.66770724800668,13.002681216020626,27.09878017234964
2023-12-06 17:34:26.445189,24.05223234610192,-24.76751391458546,11.206610423481177,22.88006425626369
2023-12-06 17:34:26.951231,18.587140778110104,-7.352864266841329,0.1623281406116288,3.5616563866281137
2023-12-06 17:34:27.132629,-5.374338187522586,7.338393175842451,-1.0702026211064073,-0.4436270030765608
2023-12-06 17:34:27.997195,-24.35435676583174,5.282929627189623,2.726773428381887,-3.6442116384889394
2023-12-06 17:34:28.069716,-8.322180773821906,0.1763591606359661,-0.992540366761296,-9.148986175964833
2023-12-06 17:34:28.150791,1.3433651870319283,7.270640047565127,-5.305800142017569,-7.942655676550307
2023-12-06 17:34:28.335959,-18.57200626836844,20.04813805887188,-7.498714873432922,-14.589377051900149
2023-12-06 17:34:28.458501,-15.50788106479533,8.821367564903511,-3.3977134125198565,-11.704191051388545
2023-12-06 17:34:28.647525,6.009877781840866,-6.026322205803264,1.094050785859902,1.1720668943613828
2023-12-06 17:34:28.693882,-5.48755482680204,4.833995871519987,-1.4323154343636055,-2.8449935387494816
2023-12-06 17:34:28.840817,-25.73320044717707,13.343957147963016,-2.113279386748322,-10.132807704839111
2023-12-06 17:34:29.006175,-9.451951206774009,6.977312999983583,-2.4355141803042426,-6.56357841517631
2023-12-06 17:34:29.528098,-6.058059077975339,7.481671265097234,-2.38009950839205,-3.710180261899617
2023-12-06 17:34:29.614348,-27.52182450214079,14.154423423283864,-0.6736539262512495,-7.270126719347074
2023-12-06 17:34:29.784944,-11.309943269216689,9.192878393733013,-3.2372952479624875,-8.139910681992438
2023-12-06 17:34:29.905960,8.331067367974713,7.176207346969107,-7.017083805096752,-6.851622488715914
2023-12-06 17:34:29.950995,4.299462422472342,15.670673031891788,-10.835815464259284,-12.23712374029465
2023-12-06 17:34:30.033098,6.465228220630366,8.820972226507745,-8.123101221464347,-9.674729992045371
2023-12-06 17:34:30.390193,3.33611023847055,2.736346679853104,-2.804625545591502,-2.8752857352383105
2023-12-06 17:34:30.485529,0.7669194952060504,8.318422604229003,-5.879366386413672,-7.913364114639189
2023-12-06 17:34:31.022289,-4.811977429145042,4.548528186445482,-0.9043719834211926,-1.7557804680402875
2023-12-06 17:34:31.134348,-14.59020694062862,6.354269985820355,3.637492063324748,5.069278062243013
2023-12-06 17:34:31.957777,-2.0603061945789305,4.685713612259074,-4.123201293894516,-8.37079057297165
2023-12-06 17:34:32.000317,4.283754550531159,-5.274688104902614,-1.724051943135449,-6.109290372985592
2023-12-06 17:34:32.081856,-4.305128480301696,6.660643400956535,0.6209351161089746,4.492806447270803
2023-12-06 17:34:32.174422,-2.6187167588971567,6.837775569152511,-2.400246390919226,-2.293676504731508
2023-12-06 17:34:32.272946,-4.851093107764887,-7.686776323396566,3.521921284023306,-0.9216881605265412
2023-12-06 17:34:32.371585,-7.53837275011726,4.403977028294904,2.0993405579019218,3.9382672099516034
2023-12-06 17:34:32.445602,0.3076115355361064,6.978450322265031,-3.6493479364620782,-3.217789410870144
2023-12-06 17:34:32.501508,-1.9744602755860456,-2.323540896952163,-1.5170945849814983,-7.409734944949979
2023-12-06 17:34:32.823201,-14.809533802753643,5.821496977331442,0.6697394044438499,-4.598196421748418
2023-12-06 17:34:32.886729,-6.384578401210579,3.260627806276405,0.6238495294644041,-0.5607533609710184
2023-12-06 17:34:33.323378,12.388383789982704,-5.043844455941138,-3.046544233206584,-2.4406836293683813
2023-12-06 17:34:33.444415,-0.5336440027916588,-8.274360618223273,0.451438582590859,-6.218673803895787
2023-12-06 17:34:33.742593,-4.410146780126812,-21.173864867058903,7.11625497103354,-2.9783527081252807
2023-12-06 17:34:34.016443,13.549435941668404,-23.585173826050585,3.378841396425727,-0.2243710178206934
2023-12-06 17:34:34.150986,-4.7271800611603565,-7.576948107968272,3.5904809959797737,-0.8721880944824484
2023-12-06 17:34:34.331648,-12.033750622610471,1.7680243443155774,1.433732570609272,-4.4280233618089895
2023-12-06 17:34:34.379186,4.398310108949539,-2.4717879140189254,-3.6994124787363343,-7.5830316468393075
2023-12-06 17:34:34.444458,-6.597396713108894,-3.946312809538052,2.2781533992894705,-2.598581477813572
2023-12-06 17:34:34.477257,-6.817304091732337,0.0947567738290123,2.403779145539505,0.6255571767186587
2023-12-06 17:34:34.505253,-5.404847538346465,2.4198405451044165,1.693436039844951,1.702985900817125
2023-12-06 17:34:34.629269,-13.539458716897462,-0.7294299730926179,5.533630212370037,2.198026813302782
2023-12-06 17:34:34.812660,7.654159153958111,-7.644717158209733,-2.347766676867632,-5.372652382789521
2023-12-06 17:34:35.007041,17.92770169019576,0.2324702443151813,-7.264972436277028,-3.0486969610419026
2023-12-06 17:34:35.337928,-0.9871903683471992,3.8267335115913177,-1.7960560105029653,-2.169389520293032
2023-12-06 17:34:35.542898,-12.81064253180348,-12.073796333504053,2.624796514629346,-13.15492388211156
2023-12-06 17:34:35.851594,-14.12818167158512,-3.2214948862992574,6.003560451085243,0.341007213457621
2023-12-06 17:34:36.679714,-11.989863196912223,16.20660165518868,5.061495964286434,14.366519408048088
2023-12-06 17:34:36.909083,-2.3840483345249925,7.556403011817596,0.6477273674884034,5.182335187647645
2023-12-06 17:34:36.994779,11.68721529445668,-2.151782609655524,-0.9861585235688696,5.559689027928139
2023-12-06 17:34:37.075322,17.12640734200097,-2.174788055291855,-3.1025086150680576,5.042768975654642
2023-12-06 17:34:37.218354,12.375695157648044,-8.17012699875004,-2.5810977154367545,-1.9407021222295304
2023-12-06 17:34:37.351211,5.457365378098254,-13.48052748434445,3.0653797192350205,2.007442790071809
2023-12-06 17:34:37.489999,12.287840686400113,-14.627089459028252,0.8360505888791934,1.546839686164474
2023-12-06 17:34:37.645641,19.88352719108322,-20.303069575608443,-2.6138165515548875,-4.720139013107204
2023-12-06 17:34:38.049155,8.143025605759222,-16.53937720743633,2.499062556825673,-0.2516578481451607
2023-12-06 17:34:38.507922,6.518597578019162,2.1165092724709136,0.920699892484448,7.544217214669352
2023-12-06 17:34:38.735694,-5.060952009435027,5.901050256618488,1.210181635613857,1.130595579584718
2023-12-06 17:34:38.901035,-32.810972596424946,-5.024354464219696,8.567477503094704,-12.079365593245386
2023-12-06 17:34:39.020579,-21.537872500567985,-2.9377801920208406,4.890822200415059,-8.911835341744569
2023-12-06 17:34:39.421919,-9.36123990887459,7.028319111372968,4.049967367845249,6.39039717657553
2023-12-06 17:34:39.890609,-8.542719869690828,6.585222044892352,7.046736439645298,13.542832363730662
2023-12-06 17:34:39.932611,5.296687141169243,6.846659665141454,1.501831337909881,12.81791696540027
2023-12-06 17:34:39.983758,-7.477654386159218,9.421743006103636,3.2665473925857595,7.703420154640023
2023-12-06 17:34:40.092321,-8.906455344032343,0.1345565674129976,3.4585069231081094,0.4924426549601134
2023-12-06 17:34:40.160527,14.029099337890676,-3.5832356820834907,-5.972378939613304,-3.814842536810315
2023-12-06 17:34:40.359207,4.875265913420254,-2.35639130881582,-6.940116788725059,-12.91218041600134
2023-12-06 17:34:40.416762,-7.169759023374475,-2.6979206313989708,-1.6442141964774435,-11.518851318611604
2023-12-06 17:34:40.628255,2.283383180496865,2.4637765087097034,-0.9075701810405647,1.5956079005480222
2023-12-06 17:34:40.917748,9.026919220836474,-6.381070128568185,-4.48422612192955,-6.728416801786776
2023-12-06 17:34:40.989294,7.871693369528958,-4.983984562190396,-3.639043779036392,-4.846154744953378
2023-12-06 17:34:41.048301,10.108958426809156,12.763549727117766,-0.4135587220189431,16.25269715188618
2023-12-06 17:34:41.229802,7.192711530697726,8.399656919862291,-0.3818832546096479,10.906777547440347
2023-12-06 17:34:41.328587,3.4668045993523564,6.973579126008993,-0.5546256120022557,6.364217284641098
2023-12-06 17:34:41.355587,8.984537638193828,2.9906955228266536,-2.6254893169349125,3.836060972990977
2023-12-06 17:34:41.507693,-7.535892644724487,-9.884479967355468,1.0992741435025777,-10.62161516342926
2023-12-06 17:34:41.895951,-3.3066607365573097,4.606025328799319,1.7549343003287998,4.075539313953004
2023-12-06 17:34:41.955972,12.265992870160504,5.681685282318767,-3.4249050802726644,6.68653023281956
2023-12-06 17:34:42.054786,-15.096689937130373,-9.341218446266982,2.168459787608067,-14.349012524969718
2023-12-06 17:34:42.286024,4.742934670996993,-1.593799713895414,-2.4426060349885885,-2.385013793105988
2023-12-06 17:34:42.505084,13.113974627066916,-3.0874343138914,-4.676277246418107,-1.146155133171678
2023-12-06 17:34:42.950528,-28.570536406371588,-3.456168966845331,9.442659040782704,-6.068115965749059
2023-12-06 17:34:43.165217,9.141213138100383,11.800258126836528,2.1477064753698354,20.24107310559277
2023-12-06 17:34:43.255400,33.22302655156818,7.4769457833493185,-7.362840528330623,17.134006329529157
2023-12-06 17:34:43.429655,5.186606703693377,-1.0847029640406487,-1.7486312827667203,0.5214669979427905
2023-12-06 17:34:43.821664,-2.085104203730741,-0.4372184566053158,0.4800550682964867,0.1507245080115447
2023-12-06 17:34:44.011337,-14.855587755091966,-5.190932485145362,2.733430943062533,-9.286565272616722
2023-12-06 17:34:44.201589,15.940008692378855,-4.258548100048377,-5.715015575462231,-1.3149359437913928
2023-12-06 17:34:44.400740,34.354711359388304,0.7415999161547338,-9.074820861013528,9.073300625803478
2023-12-06 17:34:44.894025,-4.5001384830240925,4.012196771801167,2.060702877538073,2.1677179366326014
2023-12-06 17:34:45.193694,5.686469351807983,7.10580094686969,-0.5376610172987571,9.360585963685793
2023-12-06 17:34:45.232686,15.478920068018407,7.050928829566774,-3.039960516549469,12.925451029156198
2023-12-06 17:34:45.583338,-12.547783268032166,4.284726959144362,4.011811584003716,1.1328481390626275
2023-12-06 17:34:45.843734,-21.71214592447097,-1.3509908704074178,5.381807649725951,-7.9930820774095475
2023-12-06 17:34:45.993100,-15.291424522164707,1.1592970325420606,4.118722326525578,-2.9543232440018925
2023-12-06 17:34:46.323643,3.3732910881076186,3.9953435204635466,-0.174173685431729,4.9693322883432325
2023-12-06 17:34:47.288734,7.623098398289417,-6.082925579986317,-2.8961272616388163,-4.732755300487861
2023-12-06 17:34:47.344479,1.0959616255743898,-4.414630252719718,-1.178435252738061,-4.150418606552896
2023-12-06 17:34:47.399509,3.5937400281336656,-0.1885016043375973,-1.1647068279044006,2.427842419344713
2023-12-06 17:34:47.981423,-10.573605040187791,-6.369764400031225,1.7258825262751258,-7.834492295660845
2023-12-06 17:34:48.158733,-15.19222863416251,-1.7019156260891506,3.647257572656872,-6.5784307181178665
2023-12-06 17:34:48.345479,-1.644114658271409,-4.73323374520288,-0.4197432691887124,-5.850514817082565
2023-12-06 17:34:48.412508,1.1980286416427648,-12.107353769130356,-2.426238129717885,-11.103996671624438
2023-12-06 17:34:48.686122,3.065688666684894,0.4365633663614349,-0.6375434454214721,0.2031583884281858
2023-12-06 17:34:48.854568,1.648911537039339,4.099515791370277,0.7658767792708746,2.4487251789519737
2023-12-06 17:34:49.012016,-4.454988287569567,-2.4211348027752453,0.9310120274088663,-3.927944981358892
2023-12-06 17:34:49.065034,-1.3385478489891856,4.350433951151852,0.932210698441512,3.7736618412416334
2023-12-06 17:34:49.096550,5.6474272818284375,9.74152368588656,0.2532227876624694,11.19842733479384
2023-12-06 17:34:49.148563,-2.078995801759594,5.1161129803074985,1.0179083145398216,5.958282485601433
2023-12-06 17:34:49.207374,-12.66251039768277,-1.1707077322405697,2.574091676649852,-5.096469411962532
2023-12-06 17:34:49.276392,1.845962335059577,-2.566085084570453,-0.5370840826532438,-4.661712732219444
2023-12-06 17:34:49.335924,6.273766242219671,2.5739069907583096,-0.927092169436803,3.252824892557861
2023-12-06 17:34:49.401626,-6.654342593442503,2.105107220182251,1.8792744158611745,0.0500886352892779
2023-12-06 17:34:49.466601,4.387180163708876,-6.103788856170164,-1.6241109483636418,-5.5139666006148165
2023-12-06 17:34:49.605926,6.592559946933643,-10.422966830723626,-2.0601809508251705,-10.421802583839307
2023-12-06 17:34:49.675135,-11.48320375481428,-8.781507910427464,2.390767551420549,-14.84952554504812
2023-12-06 17:34:49.714671,-12.787654658317962,-5.911619007550675,1.6348350575267756,-9.490763931620824
2023-12-06 17:34:49.784733,-7.028002991408498,-3.962012286424253,0.8026703291296499,-6.525978477709473
2023-12-06 17:34:49.869760,-5.759456469889779,3.5087655292556064,2.4095211651981865,-1.1384706625668808
2023-12-06 17:34:50.062090,-0.1486794988779971,8.642689716963183,0.4219001314111517,11.125833182359363
2023-12-06 17:34:50.172218,8.185157289651672,3.05205556501508,-1.8947036577174456,8.376787698999365
2023-12-06 17:34:50.303634,3.138799727622436,3.4934337894840137,0.4711190401043045,1.160835384284037
2023-12-06 17:34:50.418711,-0.1816108963604447,3.876622924726249,0.3335037858901611,3.774813975268976
2023-12-06 17:34:50.644472,16.038841278522433,0.8363490792451965,-4.069712611552941,11.428728041948188
2023-12-06 17:34:50.856252,14.353952954138656,6.879568426554364,-2.427863308175522,14.165540449857742
2023-12-06 17:34:50.892761,4.201245280360602,5.966662377167284,1.2337978722584246,3.159197293084648
2023-12-06 17:34:51.054542,5.667358979203937,2.5831947250732967,0.2345570727032348,0.6034608034243937
2023-12-06 17:34:51.099569,-7.561433147016168,5.8598131567760925,0.7483493086820332,5.3821542551605255
2023-12-06 17:34:51.247132,-7.724022109156804,2.307122722839576,0.593304026593899,1.882999554632896
2023-12-06 17:34:51.410196,3.877007758335829,-2.8518231498885744,-1.5396795876741092,1.6953317797209952
2023-12-06 17:34:51.821944,6.100373127984101,-8.893455916564559,-1.3089733594648725,-3.312633098438988
2023-12-06 17:34:52.043990,16.754227743422174,-10.268375821817108,-1.9645905066477063,-4.437194147058884
2023-12-06 17:34:52.357080,3.5451530189164853,-1.1072123523421942,-0.5112978411513215,0.8554160429325854
2023-12-06 17:34:52.661934,-12.318489192934916,-2.303295703725129,2.474864429159885,-9.212905316932682
2023-12-06 17:34:53.049363,-0.7262680319051235,-7.107157847416416,-0.0512942313061353,-7.54628062466188
2023-12-06 17:34:53.554118,-1.418921158687376,-1.7869466904923577,-1.3255320798632988,2.4874778990329163
2023-12-06 17:34:53.850595,3.5055388511769383,0.1991439442575431,0.8511074079764168,-3.129063611932707
2023-12-06 17:34:54.098741,5.559933918524347,1.5101915349583197,1.1050946028532518,2.113167858587061
2023-12-06 17:34:54.928755,2.019799435130738,2.151694973490061,-0.4816224694010678,8.184716180491526
2023-12-06 17:34:55.021279,12.281657441358115,-1.8446583424964225,-1.1849778182983284,-0.7843180625304137
2023-12-06 17:34:55.113824,-6.572821967735346,1.3583159790514117,1.7482791643217983,-3.1929234033740768
2023-12-06 17:34:55.264380,1.3934280165437924,2.455624491787909,-0.3641666503176873,2.144008512003352
2023-12-06 17:34:56.649432,33.630588105813274,-4.405308520366447,-7.024553292868381,7.18452102678417
2023-12-06 17:34:56.797966,2.4838717297773187,-3.861345097688935,-4.089912511230293,4.181188655574581
2023-12-06 17:34:56.936866,-6.334479297442897,1.546573380401193,0.5438387311706373,-1.0692376027557742
2023-12-06 17:34:57.041827,16.462500853877206,2.7640734755690053,-0.7093054948571784,2.5799827688215387
2023-12-06 17:34:57.251507,-2.614130801390717,-1.2905396643005849,1.1036172567429336,-3.369824697363
2023-12-06 17:34:57.449660,-6.0608403958694,-4.347696483398292,3.357969137063918,-12.527092151346045
2023-12-06 17:34:57.696562,4.1968540619780805,0.1749435508910818,1.916388926492696,-5.5821571392219935
2023-12-06 17:34:57.924724,-8.24659401502615,5.626416532876698,0.8944395891468342,-0.2596759497569785
2023-12-06 17:34:57.990753,-6.218289840320069,5.487448312465976,-0.8389684076903131,3.760097254060492
2023-12-06 17:34:58.043281,3.031067709707381,2.499810117132361,0.1976997383081288,3.404043805418993
2023-12-06 17:34:58.596253,-10.240833255192037,4.376740922524964,4.820937202460602,-10.76580830387559
2023-12-06 17:34:58.733295,-13.757336324637633,3.74173535356853,0.5488056335183917,-3.262071435015604
2023-12-06 17:34:58.783153,7.163825598258654,-7.099836992075954,-4.444196582136141,11.33933622608823
2023-12-06 17:34:58.854572,5.616291808998394,-7.033439202274072,0.9423897448600768,-2.6109628115098107
2023-12-06 17:34:58.870577,-8.659494239170336,3.3245507879948413,1.1893027215198162,-4.217687380580411
2023-12-06 17:34:58.986170,-3.82770191738456,4.700749021769883,-1.912745633631085,6.363391876417275
2023-12-06 17:34:59.110582,-9.147119031632265,3.995812148914755,1.868621366960804,-4.020559944835237
2023-12-06 17:34:59.465400,-7.307366587556793,-1.5833272970996133,0.2366408151557621,-2.921584464078401
2023-12-06 17:34:59.561966,18.418050218054987,-9.031613575240836,-5.592763436452913,14.237799345922705
2023-12-06 17:34:59.652914,11.505909327063645,2.4770888503596287,-2.500512096425389,9.46835650170764
2023-12-06 17:34:59.715039,-12.103305218382324,8.618920839381108,0.0950578479422322,-0.4388311995831566
2023-12-06 17:35:00.118048,1.8749626043265584,-6.374873398839136,-5.387398795168031,8.710213276358855
2023-12-06 17:35:00.159916,9.609282381938492,-4.637059654243086,-5.008456551283026,10.312856571869682
2023-12-06 17:35:00.333525,-13.061641539244212,9.21231397072059,0.4023542974678358,-0.4281793770577572
2023-12-06 17:35:00.553922,-17.51796882104611,9.050281260911502,0.4288771154819698,-2.187218269885405
2023-12-06 17:35:00.711474,-11.765166829475122,9.90560564354628,2.168306968651195,-4.204500895516822
2023-12-06 17:35:00.888315,-11.48144035659101,7.853136204707538,3.885285406148908,-7.065856213894149
2023-12-06 17:35:01.103054,5.422894132294713,-3.876638064862325,0.4939960938599212,-1.6552819980916602
2023-12-06 17:35:01.585713,12.479299282914324,-7.704461983923043,0.3676942957885794,-1.6206761864737864
2023-12-06 17:35:01.797838,-1.5877984314274327,-6.268037199196493,0.7903305495998997,-4.179210033038177
2023-12-06 17:35:01.911786,-9.385204164759903,-1.57014336692534,-0.7970066524205458,-2.648065900720641
2023-12-06 17:35:02.160125,-5.819664551260022,4.290332283316865,1.1879780667021127,-3.506528066213144
2023-12-06 17:35:02.466035,13.358021543583822,-1.978347713676676,2.87551771004739,-0.8987195565345177
2023-12-06 17:35:02.498708,15.151813000291735,-2.448342357354905,4.43714343009699,-4.0503656608181045
2023-12-06 17:35:02.749432,-18.31968935987079,12.238951809305698,5.1165112333476666,-12.971755859437822
2023-12-06 17:35:03.258337,-22.188462699730547,10.985649966986545,-1.112596518286426,-2.999709314636077
2023-12-06 17:35:03.410745,5.13923788924742,-4.793426976854333,-3.142545306271459,5.422367034154594
2023-12-06 17:35:03.485718,8.130588877075,-5.883313822969096,1.7769459733129591,-2.309079364880105
2023-12-06 17:35:03.890423,-1.1774421661802503,1.1350991296091049,0.2260197528779264,0.1599722350434017
2023-12-06 17:35:04.165230,-2.538697925625204,1.2731738322635884,-1.179207003936816,1.8421993122187312
2023-12-06 17:35:04.195939,2.7276517062781656,-2.4122644899816885,3.5818130047565044,-5.496638288147655
2023-12-06 17:35:04.250087,8.916726243247817,-4.97247797853354,3.2681115782885013,-1.6602280079711198
2023-12-06 17:35:04.505937,0.1179113213202032,-1.7167555588009755,-1.3974113263668138,3.280392543362026
2023-12-06 17:35:04.545277,-7.939219757183247,2.326465200327164,-0.8052403316121151,-1.8226970406783445
2023-12-06 17:35:04.701483,-3.219924682721744,0.3865324524807393,0.8064938519040978,-3.147321061782822
2023-12-06 17:35:04.762010,-7.315541534783008,-0.1544561692692878,-3.254686648241233,2.6329522880570773
2023-12-06 17:35:04.941319,-14.828928236585758,5.079947372531785,-3.0634788731164626,-0.2281503713885384
2023-12-06 17:35:05.097721,-7.1282993492484445,4.817919903907567,1.8289664768542728,-5.925904907817495
2023-12-06 17:35:05.295428,-1.44968328704656,2.5808984834840385,1.1886132002123304,-2.5510049503961043
2023-12-06 17:35:05.355343,-16.880749009149284,14.999850437631192,1.690760730332354,-7.701153636145039
2023-12-06 17:35:05.867399,-19.058486965825985,13.332543385531965,-1.4662094028329462,-2.9513955439309663
2023-12-06 17:35:05.986800,-3.977108642801248,-3.443422316247261,-8.636406676074305,13.54589984747194
2023-12-06 17:35:06.345336,-18.24070796402876,10.596174115100498,-2.225489480118576,-2.6304253053787345
2023-12-06 17:35:06.633089,-3.297897892967665,3.737585709733634,2.927350064053946,-6.577071666178238
2023-12-06 17:35:06.680098,40.59271297751508,-28.33969985252777,-0.3505152342126831,14.137272412770564
2023-12-06 17:35:06.794430,3.115280741494039,0.0457359381107638,1.815240110743079,-1.7666197234967145
2023-12-06 17:35:06.919523,-17.484110344112015,14.10620442316712,2.579608632810886,-10.02461090866483
2023-12-06 17:35:06.945514,21.866518511610103,-15.15426366693463,2.2321429419800345,4.217240522140441
2023-12-06 17:35:07.006776,-4.696687886344767,4.280195313534996,1.900818404680216,-4.568885874516192
2023-12-06 17:35:07.065153,-13.607600354827529,11.253610625489648,0.2634317747578435,-5.313527918779131
2023-12-06 17:35:07.330620,13.108392810235983,-7.414558907836998,1.7176872457562813,1.7125125658492044
2023-12-06 17:35:07.486159,-11.079662038103011,8.621296656522793,0.4704889854439567,-4.39499711874904
2023-12-06 17:35:07.518713,-5.125485148339178,6.549111103870105,2.0242731806999994,-4.666913995966742
2023-12-06 17:35:07.624266,0.129372696455665,4.632212573449107,5.896116506802864,-9.226769965964214
2023-12-06 17:35:07.693299,-20.14140388183128,17.064404705607064,3.603977585895585,-12.794624632475683
2023-12-06 17:35:07.909631,12.407175870895774,-6.791926435105546,2.32018134975285,0.8250549858461463
2023-12-06 17:35:08.035003,15.692724318996214,-12.30458362108092,-0.6939270149391562,6.501346183446356
2023-12-06 17:35:08.139579,-8.468128504211593,3.7627370346794575,-3.545727728285709,2.3034994547175605
2023-12-06 17:35:08.576216,5.1559343900464,-1.5699832858839695,-0.2742225680562591,2.4637254222480443
2023-12-06 17:35:08.635035,-7.018381189428211,7.585718339277196,1.4325023422130096,-4.565651973149112
2023-12-06 17:35:08.810194,-4.728945536240548,3.9322086261204223,0.8299683703763993,-2.808511343197552
2023-12-06 17:35:08.895636,26.013750647944374,-19.371112550373635,0.9036367982676834,9.218359791977582
2023-12-06 17:35:08.954374,5.780812806905878,-0.1135604000175528,5.551600969190497,-5.3185001821259705
2023-12-06 17:35:09.218349,-9.158959584751264,11.063468666008012,5.453735608374708,-10.998719259601437
2023-12-06 17:35:09.409961,8.810873158369862,-11.839161356478064,-5.508068186670911,11.646767378471797
2023-12-06 17:35:09.545084,17.48988749565137,-16.260151131607,-3.207081781627879,11.626320592217164
2023-12-06 17:35:09.687530,14.295755551616368,-6.365785626618032,5.175349180220012,-1.809836310437676
2023-12-06 17:35:09.959129,-13.024826319203251,8.979238322226454,-1.1971563254163784,-3.529560928713656
2023-12-06 17:35:09.986141,-18.482610975747136,8.320979378961619,-6.919988596996985,2.3830098477265427
2023-12-06 17:35:10.014666,1.5304821102814234,-4.326503011977114,-4.423174505587029,6.419982549122019
2023-12-06 17:35:10.124238,-10.495174072987844,7.559103138432958,-0.6730848226818094,-3.315830036957516
2023-12-06 17:35:10.496496,-12.41737624608118,10.75432462938889,1.742456159360135,-7.280263194324094
2023-12-06 17:35:10.545952,0.8292081468150788,2.914487564871887,3.693485171859476,-5.22530745786958
2023-12-06 17:35:11.041960,8.099224462160127,-2.9073945844457803,3.675109773950304,-2.098540353006466
2023-12-06 17:35:11.248418,15.13404968626238,-13.887853453031846,-3.15659518979932,10.218268179439704
2023-12-06 17:35:11.499735,-3.482172749121439,-3.864845566147621,-9.630209006997996,10.948010603276892
2023-12-06 17:35:11.706666,-9.985614844216556,3.985921659675353,-6.544267897255518,3.818941918478279
2023-12-06 17:35:11.944768,-5.48547320528848,5.115104966903376,0.2060608091217544,-3.017873246466414
2023-12-06 17:35:12.093671,-7.014992476576084,6.7881385945419215,1.6817169148650415,-5.19232353867921
2023-12-06 17:35:13.169083,20.614384971277303,-17.399928353992507,-3.129501094009256,11.90805860977174
2023-12-06 17:35:13.259142,25.86630190994852,-24.037620085472664,-6.463016136061387,18.560085865828743
2023-12-06 17:35:13.360471,14.719976818787014,-12.083459931557362,-1.332019587224447,7.535905282983528
2023-12-06 17:35:13.495531,25.116136315625045,-19.78821071941231,-1.8884475951728548,11.989424746933413
2023-12-06 17:35:13.991447,17.04353798415857,-19.74252623902302,-9.59673492385927,19.224556435552945
2023-12-06 17:35:14.114970,18.595630133372406,-15.905110146597464,-3.146546097706447,11.172037507479924
2023-12-06 17:35:14.362779,32.85868264884547,-22.09740387142513,1.9110474507640407,9.597583881244825
2023-12-06 17:35:14.410008,17.43593087305709,-15.228297411042297,-3.242003402218464,10.926412251933566
2023-12-06 17:35:14.616085,-6.317972481022537,3.51820849949405,-1.4735381471352569,-0.4932929273090904
2023-12-06 17:35:14.817687,-5.08652298974452,1.966591004797145,-4.145273482166782,2.5124994729197727
2023-12-06 17:35:15.010301,22.74190640478733,-19.11679248859125,-6.169262162153523,15.21579516462464
2023-12-06 17:35:15.087369,28.27622530141824,-20.18553593133428,-1.269302455375268,11.399255142432729
2023-12-06 17:35:15.244455,4.663557529468414,-6.239908221944648,-4.002196587678582,6.845661106676445
2023-12-06 17:35:15.564626,-8.547133159039788,5.883766677836923,0.2788373248489935,-3.271852321160759
2023-12-06 17:35:15.672864,-16.702302004236707,15.292726411618458,5.1772347170593855,-12.639653062481038
2023-12-06 17:35:15.971313,-6.73000090939518,1.0057021380946782,-5.666673363974794,4.500336405153067
2023-12-06 17:35:16.058719,12.429975653490391,-13.355969138120049,-7.424686919776058,13.490169295161468
2023-12-06 17:35:16.287263,7.388929971538129,-4.862214752281129,0.1154214329926753,2.35583819888106
2023-12-06 17:35:16.469853,4.060549072880927,-2.8942082374717435,-0.7209740993619865,2.0653461378069404
2023-12-06 17:35:16.680983,-3.5845100413530195,0.4324994512278133,-3.561126815073364,2.8455373428492488
2023-12-06 17:35:16.821143,-19.252794036260983,10.904633589316632,-2.3398176269582773,-3.545888509677813
2023-12-06 17:35:17.132936,-6.05275126585747,5.139016533583426,2.109668312602083,-4.487268477043429
2023-12-06 17:35:17.309866,-1.3092516654312312,2.9793194449204257,1.6002509270284546,-3.1582751760669106
2023-12-06 17:35:17.368667,-17.648843741656886,11.42956073707871,-1.5254094523692376,-4.763301072963419
2023-12-06 17:35:17.485474,-7.061607824526186,4.801899510489966,0.8714470757150167,-3.175838155005916
2023-12-06 17:35:17.605378,3.447487721147835,-0.8374505591874009,1.937381112869124,-1.2900403877971962
2023-12-06 17:35:17.707649,-8.144718475708379,7.31426188491858,2.3740507853302057,-5.958706659901483
2023-12-06 17:35:17.950265,-17.221029542570378,10.70124455909485,-1.049061043319061,-4.713026310617162
2023-12-06 17:35:18.086010,-11.870445753804198,6.321609310321439,-3.807262427877885,-0.261412677841278
2023-12-06 17:35:18.116748,10.360567560680105,-2.137451436218319,5.99303204240556,-4.133466889933154
2023-12-06 17:35:18.194826,5.8027712955139,0.1068623468349349,7.388690002937698,-6.141554651514259
2023-12-06 17:35:18.491355,-14.090686739171662,8.865837245325023,0.0686746065721374,-4.639163141771789
2023-12-06 17:35:18.600913,1.225341210358998,1.2179163661901082,-0.2962549037561358,-0.7981803786575489
2023-12-06 17:35:18.638989,-2.499542052755444,2.062535754020228,-1.2488888468512729,-0.2755290933308137
2023-12-06 17:35:18.902406,-14.923081018621664,9.471407726939685,2.5141886241340896,-6.826028699949895
2023-12-06 17:35:19.227116,9.366778900149091,-2.2642610971433097,6.624736258321804,-4.246154343727169
2023-12-06 17:35:19.302151,6.274989114807492,-2.861303397428456,1.2961348707578717,0.4703015161074364
2023-12-06 17:35:19.411956,-17.713565483785178,10.190439895220948,1.1510422118643349,-6.011244647859878
2023-12-06 17:35:19.526959,-14.477046397730934,10.30086611502011,7.244346422494153,-10.83939355593352
2023-12-06 17:35:19.967713,-3.114784329811748,0.5393689759710094,1.5085333929840308,-0.9973966972490256
2023-12-06 17:35:20.022292,7.267943807174358,-7.822702473031223,-8.878103587697233,11.048136824023825
2023-12-06 17:35:20.340203,7.492805447921095,-4.555287391125829,-2.220589028526596,3.9516523638043353
2023-12-06 17:35:20.613651,2.950852818986727,-1.30008626746164,3.750436318334637,-1.995483255124212
2023-12-06 17:35:20.658190,12.99677676446118,-7.119643536719194,-1.3338340042594397,4.5978513799234575
2023-12-06 17:35:20.805935,10.436778653778742,-3.444899114762226,3.354757229165228,-0.9396521924417904
2023-12-06 17:35:20.917823,-8.764802110573699,5.645810329622752,5.8355204389555615,-7.13344332063968
2023-12-06 17:35:20.955849,-18.705252760494066,8.097978962333544,-2.028212187311852,-2.547056534455508
2023-12-06 17:35:21.028731,-18.09560146896936,8.401542296702287,-0.0736506972602091,-4.1373950318244495
2023-12-06 17:35:21.150902,4.077341737270458,0.5019978532531191,9.982099402156043,-7.531900257414734
2023-12-06 17:35:21.244483,15.822801873552192,-4.296308343222463,11.159402842669104,-6.020405158613177
2023-12-06 17:35:21.641001,-8.18728416036996,6.757918649721056,9.29225744643326,-10.236892730701436
2023-12-06 17:35:21.889440,-3.047183856571261,6.086133067945154,14.188455558884645,-13.516666219577695
2023-12-06 17:35:22.575746,19.53384953274118,-7.834429613246441,5.667183819489775,-0.094989451499178
2023-12-06 17:35:23.095688,8.966941115453817,-6.701793029031003,-6.526247015569865,8.18115172801987
2023-12-06 17:35:23.437493,1.6876587015193605,0.8731524628881676,0.1364755873518221,-0.7626689026698137
2023-12-06 17:35:23.637527,2.290323889009062,0.1134811396771354,-0.6592670639979659,0.2980158382111571
2023-12-06 17:35:23.796124,-6.488533832595282,1.2236267720695937,-2.687414390253558,1.3949074239224395
2023-12-06 17:35:23.903648,-4.879280130926868,2.8726179913409142,6.232003922503631,-5.797567904227843
2023-12-06 17:35:24.230400,8.008310643859314,-3.835807562402283,2.097024849329797,0.6006327977900479
2023-12-06 17:35:24.321741,5.108571174158747,-4.018299098052655,-3.7777720316866623,4.774900482186584
2023-12-06 17:35:24.539872,-14.352785872490534,4.686779442271376,-5.91263662028954,1.6916919491853135
2023-12-06 17:35:25.034847,-17.89107226251177,6.767197121382084,-3.665727911993185,-1.0213375347510365
2023-12-06 17:35:25.130448,-15.526161904995712,9.79807232351523,12.667660388916929,-13.986725584188733
2023-12-06 17:35:25.529873,-20.07655470425877,12.908993985714693,16.37273198426626,-18.04491512635321
2023-12-06 17:35:25.564881,-13.307566064048832,7.750804080490101,8.160480075092666,-9.61451502398301
2023-12-06 17:35:25.782525,-5.283170506969875,2.932465783863806,3.818126165251959,-4.121176908925162
2023-12-06 17:35:25.924833,2.6421813475057045,-1.440724057097861,-0.5405628038191275,1.1560413051841092
2023-12-06 17:35:26.178284,9.010882707440706,-2.7467720077042745,5.013540183817963,-1.936601520632408
2023-12-06 17:35:26.592238,5.234807890178562,-1.0054852319192904,4.496330477543967,-2.5361001318042016
2023-12-06 17:35:26.756357,-4.605291065325057,0.8686317233490228,-4.6846607482272455,2.64466205719406
2023-12-06 17:35:27.286134,-15.409620123118229,5.47289851590532,0.3268595712049262,-3.056150156679054
2023-12-06 17:35:27.381677,6.742884975650913,-3.4797608077253592,-3.139393500020021,3.920334867978176
2023-12-06 17:35:27.411689,29.20343030351023,-13.706070188183192,-16.57001799570132,18.03868494108298
2023-12-06 17:35:27.457146,12.253897690411767,-6.310899197896163,-12.00232843285347,11.151469534691271
2023-12-06 17:35:27.524800,12.881554733606023,-5.234367500940009,-3.1953568233988228,4.871575794956825
2023-12-06 17:35:27.700570,17.432564717781062,-7.101102306783622,-2.1377689684742247,5.159658228178531
2023-12-06 17:35:27.777111,12.538557859269162,-6.10895521970943,-0.1912972163798669,3.537948895543252
2023-12-06 17:35:27.897995,18.126247860286245,-8.80269658097965,-2.241805730722644,6.296408485816943
2023-12-06 17:35:28.019799,-7.498073127121277,1.2216602182055998,-3.913271186997133,1.8271911089550523
2023-12-06 17:35:28.213073,-13.193248960493843,4.440468363423417,3.99047995783757,-4.875493867348832
2023-12-06 17:35:28.341780,24.87979086512264,-9.818646405574889,-0.8684813833512627,5.893557026797055
2023-12-06 17:35:28.437335,12.715900662405394,-6.140983921688131,-12.062160915797635,10.904947512619714
2023-12-06 17:35:28.585433,-20.857538497981626,7.491561624419839,1.0610492640487843,-4.718112800591385
2023-12-06 17:35:28.714003,-20.440989210874,8.697916910544214,9.898759492472411,-10.973511523766332
2023-12-06 17:35:28.904675,-25.44186795540503,9.932118408218424,1.8471974376455944,-6.643430281253305
2023-12-06 17:35:29.104984,-14.633498493788752,5.582436692329973,1.2315232984005977,-3.857572232901495
2023-12-06 17:35:29.388116,15.3048358172113,-5.07187075515924,-0.8204449730620644,3.2094887103235
2023-12-06 17:35:29.444958,3.2766752877864542,-0.8919145658078891,-5.12771778089355,3.588282959298298
2023-12-06 17:35:29.584314,-13.74414807629883,4.828944459264344,-4.228319673439985,-0.0803486324323204
2023-12-06 17:35:29.795135,-2.138577535017066,0.7008933037297528,-2.542444298838064,1.1445657541629852
2023-12-06 17:35:30.365249,7.296809610980424,-2.184807836620873,1.9976073059806825,-0.0583309713219511
2023-12-06 17:35:30.550528,8.826260139457197,-2.433883495496294,3.988570960686536,-1.1582495126368413
2023-12-06 17:35:30.770212,-2.1472378903132743,0.912184787587115,-2.151836417655515,0.7639021549473598
2023-12-06 17:35:30.986575,4.902608165729427,-2.399684497461951,-6.479541155297825,5.306735530262246
2023-12-06 17:35:31.366127,18.53765728083093,-6.763139856886608,-0.2061657936074224,3.8889653688268377
2023-12-06 17:35:31.684104,-5.999813046357872,2.60151561986136,6.052518935325242,-5.17534694122117
2023-12-06 17:35:31.811731,-4.406417769601865,1.897258732531493,4.327752512472446,-3.721984472416665
2023-12-06 17:35:32.239007,18.567940727187622,-6.918781736660955,-3.838760842282866,6.197734400834614
2023-12-06 17:35:32.299007,-5.492731144357389,0.7988027897679159,-10.639663962870596,6.037954358486115
2023-12-06 17:35:32.520304,-15.091304260601357,4.9848603747311895,-2.4715181829992465,-1.3141042916526475
2023-12-06 17:35:32.701171,17.342046135073346,-5.924713333710868,-1.73277674012672,4.310101098078961
2023-12-06 17:35:32.839153,17.05897902142053,-6.572632958477433,-12.267738803426465,11.09070309809692
2023-12-06 17:35:33.169313,-7.471129697205852,2.653955746720733,-3.453043177583477,0.5741445138926936
2023-12-06 17:35:33.258180,-0.504356421917907,0.5039104997241632,1.1277446168011356,-1.005021046056814
2023-12-06 17:35:33.393137,2.8037517231824456,-1.3729062130768843,-5.930320096064006,4.336517356236471
2023-12-06 17:35:33.623445,-15.673994363287708,5.495807600727962,2.435439876104597,-4.579874376751321
2023-12-06 17:35:33.867253,-18.756279206688863,6.905065680542401,7.455526322840278,-8.414233406450776
2023-12-06 17:35:34.322883,-14.99776212181541,5.272287693624531,0.6434787197363233,-3.3818200831116214
2023-12-06 17:35:34.464361,-10.570084902238078,3.7064663641552817,-0.0780556733357373,-2.062640970412644
2023-12-06 17:35:34.537922,-12.998803722303634,4.219730335122925,3.2476127694432635,-4.103182225184235
2023-12-06 17:35:34.600936,-15.158799117971164,5.20356207730271,3.3144243558940354,-4.421352674432564
2023-12-06 17:35:34.626172,6.542803430818401,-0.930835941002815,3.821833071062511,-1.2228311123472462
2023-12-06 17:35:35.057406,1.166264419009315,0.0399596071977886,3.6786303962569233,-2.1636609048697863
2023-12-06 17:35:35.207151,-19.11307261671593,4.5126419699439815,-3.1603266158922807,-1.3613044488934594
2023-12-06 17:35:35.518351,-2.2881991119525504,0.4650902818053856,-1.6634063485415995,0.6470397561872859
2023-12-06 17:35:35.673765,9.14028924989193,-1.819477102325732,1.0105763827990253,1.0449195220394505
2023-12-06 17:35:35.845349,10.523245561634676,-5.2140082877671095,-10.272397639705764,7.66238148151085
2023-12-06 17:35:35.921485,12.069375899540956,-4.421296534969514,1.814175910660151,0.3005133948062677
2023-12-06 17:35:36.077523,-3.7420199955000055,3.008173013925161,16.701895860678782,-11.098946501960617
2023-12-06 17:35:36.189839,-8.872381817297022,1.9497538393607683,-1.1908488135035449,-0.7922654845545422
2023-12-06 17:35:36.310299,1.010196611884569,0.5194707230181094,1.3921836154387166,-0.4268687547640961
2023-12-06 17:35:36.416178,3.8109952592268175,1.3572287346195866,12.916307722076567,-7.249558859522104
2023-12-06 17:35:36.649861,-0.6247364556331345,-0.8394310119797682,-0.2120833366351462,-0.4024351766526869
2023-12-06 17:35:36.809743,-8.112569160210372,1.5916988367065643,-1.402998204009312,-0.5800893102719703
2023-12-06 17:35:37.301947,1.588479582978256,0.7022005904526429,3.263131089528778,-1.5355630278372496
2023-12-06 17:35:37.363303,16.75136413844454,-3.2287372098061407,4.962987901948066,-0.2689451491440486
2023-12-06 17:35:37.478774,-1.3672305156659736,1.0410018685570184,4.510814659396136,-3.04836791766296
2023-12-06 17:35:37.825900,-11.351620443195907,0.720886054150026,-10.112290732461258,4.413306253527103
2023-12-06 17:35:37.936668,0.4646717252953664,-1.8594973931402288,-8.646800972430524,5.492180859341274
2023-12-06 17:35:38.127167,-9.68998829150572,2.6450001840914186,2.082979366910458,-2.9721489026021177
2023-12-06 17:35:38.544390,1.0549970667007158,-3.275669943180551,-3.637770543807185,1.3364971357122808
2023-12-06 17:35:38.779080,18.502666802268475,-8.346110040810075,-2.5851272335037447,3.020946689507844
2023-12-06 17:35:38.869301,-7.034838995500487,1.686081541652198,0.6894186063263577,-1.648652268580841
2023-12-06 17:35:38.999545,-13.955263334605686,3.2363940802147506,-5.817477365235339,2.106912709233576
2023-12-06 17:35:39.033190,-2.4757809763054426,-0.7994113769783057,-6.242764215714256,3.7209013302122185
2023-12-06 17:35:39.272936,3.2014448119917067,0.5844613907373585,-0.5557582405569007,1.352490607688019
2023-12-06 17:35:39.369036,13.205282369928344,-1.3708313470086635,1.9383198498088343,0.9758459763277606
2023-12-06 17:35:39.539156,-2.295274911391751,-1.0079356215543451,-1.4055291277088495,-0.0687050656405367
2023-12-06 17:35:39.777204,-8.052211836256332,0.8360069394788837,-1.464553098510726,-0.4278189708909047
2023-12-06 17:35:39.889570,11.186974150182344,-0.8268219764207528,7.531155994955267,-3.1940570699474167
2023-12-06 17:35:39.999971,11.543409858608676,-1.146623918391278,7.805297890957434,-3.525927909029205
2023-12-06 17:35:40.040070,3.962674240640968,-0.2262664900997419,-2.331697393120302,2.54150717989169
2023-12-06 17:35:40.091175,-9.173215290928711,1.8556520779118528,-3.541733744318403,1.459042754413576
2023-12-06 17:35:40.171544,-12.07994753034122,-0.7491976881994583,-2.877582654635962,-0.4768423202310721
2023-12-06 17:35:40.415303,4.68660752097975,-3.4321578374200703,-5.395114504350119,3.551711575462377
2023-12-06 17:35:40.476993,4.002465374752623,2.6309286940878667,0.3018913888443046,1.2026413820577049
2023-12-06 17:35:40.523649,-7.22851089906917,4.121635326547236,2.187893604646615,-1.0731531844121076
2023-12-06 17:35:40.727111,-22.825295481546306,5.226785748973488,0.5923320224352069,-1.8532072725163065
2023-12-06 17:35:40.890933,-23.11059635121479,6.925640815739344,3.8792112390369096,-4.410297316129587
2023-12-06 17:35:40.932276,3.65919864669809,-1.5323990928447897,0.3624393837307617,-0.4229552821935637
2023-12-06 17:35:41.037627,-0.5853153477409855,0.8073035631168084,3.516522112018231,-2.256526644339849
2023-12-06 17:35:41.296941,-7.207955360480109,4.261358637681061,8.56713692794737,-6.051788781716807
2023-12-06 17:35:41.487980,12.967115638752816,-4.186906123908124,-0.3693464192169133,0.79787946490398
2023-12-06 17:35:41.619135,13.27991214594267,-0.9585805773648688,1.0261925502311378,1.3336519717774316
2023-12-06 17:35:41.713751,17.005026583204693,-2.495456849246078,-0.1427712141943495,1.829986775083648
2023-12-06 17:35:41.748875,12.32040868683744,-7.793281312445602,-12.692263521793649,8.404700946802155
2023-12-06 17:35:41.863711,-12.0191661414286,0.8562843606607169,-7.373479711260844,4.457749145414684
2023-12-06 17:35:42.131873,-7.704202460133083,2.0702144538227274,2.85290494811946,-2.5808761303735657
2023-12-06 17:35:42.320353,-2.0541146427800547,1.352672863668137,3.5538582473571827,-2.613945448767924
2023-12-06 17:35:42.370392,10.748690822923397,-3.821303798923503,-1.563876565024371,1.4408506835228174
2023-12-06 17:35:42.444465,32.71667788560827,-13.849329837349888,-5.133282367978068,2.155844456052696
2023-12-06 17:35:43.014340,5.597604879002086,-1.83115905345466,1.0671482349055468,-1.8624604379551288
2023-12-06 17:35:43.366876,-19.033684357744395,7.747278505793925,1.6085810971266663,-0.5304485283703452
2023-12-06 17:35:43.439100,-13.753392168999238,6.6813066017791805,3.531115896066105,-1.344068871125563
2023-12-06 17:35:43.620501,-19.27487896952662,9.863092071342336,10.55432787259694,-6.477672804644648
2023-12-06 17:35:44.422550,-7.533501047172058,1.4740838268741625,1.6908970128608125,-1.7184099507028678
2023-12-06 17:35:45.224717,7.512402624619316,-1.236947858188045,-2.15552140507129,2.309212039456579
2023-12-06 17:35:45.423111,-4.438369154562653,4.886240796693764,4.271995987138826,-1.7207709360638186
2023-12-06 17:35:45.475761,-12.424306420675904,1.4129652964298116,-0.124675792337655,-0.9613561606444948
2023-12-06 17:35:45.930658,-15.53373319565674,3.720387354296795,-1.1502462860137983,1.333674128489886
2023-12-06 17:35:46.263979,-8.709731874462795,-0.255322245801209,-0.9398031251633004,-0.1043341548809884
2023-12-06 17:35:46.437671,9.218940094711328,-11.257331349647009,-5.195247036150179,-0.6924930462086782
2023-12-06 17:35:46.861375,-0.7458780390971397,-2.805884386043564,-0.9601421373500816,-0.7527349158306804
2023-12-06 17:35:46.975407,-6.293996242040111,0.7441063317619175,0.0115859105833293,-0.4627062179270366
2023-12-06 17:35:47.114232,11.16436933465152,-2.6206672053806352,0.9721829301509904,-1.7737593735031494
2023-12-06 17:35:47.262362,3.390940879773551,5.347505866921134,7.545598638383002,-3.901490621019384
2023-12-06 17:35:47.885109,-3.1717783059937754,6.4253977421059325,5.920967282430679,-2.766028683089613
2023-12-06 17:35:48.012094,-6.633225092310888,10.183279153244063,6.344450191847734,-1.0190965645341177
2023-12-06 17:35:48.080303,-22.20524820461636,9.463848640934376,4.098664385535905,0.5605655219887239
2023-12-06 17:35:48.142189,-4.428302184161528,-5.524718723058884,-3.695419119768924,0.4416653771743074
2023-12-06 17:35:48.274786,6.867515310345475,0.6494753818561904,1.2427941314609705,-0.3782729392088867
2023-12-06 17:35:48.343468,-3.0787147505196004,7.304972921482227,2.5612451279017967,1.4621455398152272
2023-12-06 17:35:48.417890,2.763552831197755,-3.060379674197048,-3.0227587479520976,0.958349280882184
2023-12-06 17:35:48.468181,-6.644818292370384,-5.253448263102657,-3.713768721635101,0.6815446206559346
2023-12-06 17:35:48.506026,-2.727177179200579,-4.410518738379877,-4.8406489681390905,2.316433735950867
2023-12-06 17:35:48.662146,22.16056023694838,0.2775398185490426,-0.9457093207722164,1.0199263643366792
2023-12-06 17:35:48.714670,13.563200349171916,-3.694550954243761,-3.412828330385476,0.976588881744557
2023-12-06 17:35:48.835943,3.833412933125538,-11.684762771249687,-7.7529610235212765,0.4974419627884108
2023-12-06 17:35:49.092157,4.567758915551563,2.478753797035308,3.2203074246655787,-1.637046494523824
2023-12-06 17:35:49.346132,-8.902543466349016,2.582013193669459,2.158781874875769,-0.0662873693453355
2023-12-06 17:35:49.637185,-4.095378915302559,-5.218642085619372,-4.217200496719272,0.9723514449502306
2023-12-06 17:35:50.062507,12.75695821558575,1.4360922096616702,0.7287880429776922,-0.2088569613577783
2023-12-06 17:35:50.360167,7.491046683224948,-5.843648291929493,-2.6450149458293186,-0.6513497194623753
2023-12-06 17:35:50.457224,2.247672989470107,-2.1085370594487585,-2.1599171537096664,0.8366141466053487
2023-12-06 17:35:50.695853,2.752871608827476,0.5977541372953806,-2.31518978948616,2.6409527075392614
2023-12-06 17:35:50.762816,-4.001097858816629,-17.081047704241445,-10.536052215104624,0.6203393641072843
2023-12-06 17:35:50.840251,-0.3147192851296505,-7.08877963058954,-3.928030411711334,-0.3368662672721487
2023-12-06 17:35:50.942206,15.097708159787048,-3.4500087078648427,-1.667301277244568,-1.337550277975697
2023-12-06 17:35:51.026500,25.13015486656419,-12.767173681901191,-5.461240970801149,-3.974152334020597
2023-12-06 17:35:51.076279,17.25929795774957,5.628179094729855,2.42546224074548,-0.1352616520719472
2023-12-06 17:35:51.454011,3.165229175458552,-0.2709314945531746,-1.9352572352636623,1.3367663898493167
2023-12-06 17:35:51.675027,2.988674318706236,-15.790450490163924,-8.328759151794591,-1.908038282745272
2023-12-06 17:35:51.861438,7.499701670809484,2.913946030973313,2.869101774621654,-1.936198846971752
2023-12-06 17:35:52.463786,8.530452384700526,4.229981892674622,3.606210434867148,-1.9226793481503464
2023-12-06 17:35:53.600547,-1.4207574558274634,-6.847465976317185,-4.36471534850883,1.0159078144431204
2023-12-06 17:35:53.713935,-11.608151120438665,7.686072376020746,4.599596105085619,1.2408311842296404
2023-12-06 17:35:53.854535,-3.042319138679599,15.995906945944856,11.09276751943107,-2.3247405716106058
2023-12-06 17:35:53.958181,9.38983043223098,6.178292033656882,2.422948181366738,0.407372724252569
2023-12-06 17:35:54.269834,11.902541822733829,13.466695308113778,5.567007408107049,2.013696045795449
2023-12-06 17:35:54.417959,-5.203481575532074,29.708780911568272,16.012609608068402,2.871200587841371
2023-12-06 17:35:54.683623,-6.709989653836881,16.26298434095778,8.383399050258577,2.3949699627450016
2023-12-06 17:35:55.079351,14.447131352298126,-4.00157149949315,-2.017984489785269,-2.6751422204903146
2023-12-06 17:35:55.682690,-3.48179938339869,-2.0392977605592306,-0.4175206087571809,-0.27630454517374
2023-12-06 17:35:55.873006,-9.837574851624394,0.1290388212762488,0.5162336896369046,1.0040576120966287
2023-12-06 17:35:56.137935,10.697450680212846,0.0577093717081345,0.1832358319470494,-2.090986431838257
2023-12-06 17:35:56.361154,-10.0698792750911,4.378723791072516,2.289117461487381,2.188717674990958
2023-12-06 17:35:56.584026,-11.558033625120991,3.5520147034481,1.6841144103664405,2.526266331283012
2023-12-06 17:35:56.731675,8.879630143806697,-1.7966069760806649,-1.210563120084065,-1.4035528015351275
2023-12-06 17:35:56.876760,-4.844334136779054,-5.924559625235718,-2.7966041854375456,0.0604496071101509
2023-12-06 17:35:56.949947,-2.931091855056083,-2.386542869742215,-1.1029081195764416,0.1738770037875624
2023-12-06 17:35:57.079803,2.5829736233659224,0.3650516980281077,0.0222594380563542,-0.2443996492622703
2023-12-06 17:35:57.402254,-17.75026943052903,-1.1864230164190677,-0.2628025223549968,2.589607622998096
2023-12-06 17:35:57.507479,-12.072565450927051,1.5400809032379643,0.99421262170478,2.0286310702106807
2023-12-06 17:35:57.734352,10.172642045003728,-0.0239802282451116,-0.3718391891917069,-1.5709650906757724
2023-12-06 17:35:57.769880,6.823065460574012,-4.936147324481093,-3.021470783225015,-1.3447078569080415
2023-12-06 17:35:57.804880,-6.073563611326409,-7.562814459047111,-3.7604220577119807,0.3083766945043366
2023-12-06 17:35:57.853453,-5.573253481370919,-9.449715204280352,-4.0961064750614105,-0.8350258074368022
2023-12-06 17:35:58.039024,5.883095361244281,-6.261027028334549,-2.817982080488665,-2.5528703895276026
2023-12-06 17:35:58.148141,6.34505549791539,-0.648017182908643,-0.2060751990347724,-1.5582590275109491
2023-12-06 17:35:58.341440,-6.29127348979532,-1.609928749826585,-0.7206820791467969,0.981682330121688
2023-12-06 17:35:58.494322,-8.285539156363996,-11.035282752264242,-5.4835361037889685,0.162238374615436
2023-12-06 17:35:58.700886,-2.188161723929829,-11.892755638020375,-5.513996483404412,-1.856526697420246
2023-12-06 17:35:58.875465,0.6766405378387726,-5.258976649583061,-2.14600225161402,-1.5357605183665368
2023-12-06 17:35:59.145338,-8.129505441165032,-5.693346441413349,-1.889286593914412,0.4050089469320395
2023-12-06 17:35:59.229192,-15.41369435115634,1.2433292380309644,1.751390199301758,2.3490110769953083
2023-12-06 17:35:59.515441,3.2881024675136303,7.206707085603474,3.1803046675926705,-0.0162877320125092
2023-12-06 17:35:59.590080,10.69310089393063,0.0661232952281857,-0.7811798742262723,-1.76119064764312
2023-12-06 17:35:59.756673,-0.9649089740236042,-2.142749854946429,-1.1316844455682584,-0.3127347444638093
2023-12-06 17:36:00.290780,1.7524796085292642,1.0524175674730123,-0.6108776863325746,-1.0438231102881166
2023-12-06 17:36:00.480403,-1.500096640296112,4.672816736816239,2.4792209423319065,1.3384049479916755
2023-12-06 17:36:00.665474,-5.011304309802727,1.7392794836485923,1.2664281469793586,1.5951772117731629
2023-12-06 17:36:00.767588,6.599205026215939,-9.835719648246682,-5.636328390887707,-3.899888395672814
2023-12-06 17:36:00.989932,10.812300059036104,-7.79138251796783,-3.514821505963301,-3.348946131148574
2023-12-06 17:36:01.179634,0.7256729687190668,2.8815884477768186,1.9505876026971585,0.9295594131992136
2023-12-06 17:36:02.078168,-11.365137743116804,-2.378223405262464,-0.4745846291693083,2.167209290315539
2023-12-06 17:36:02.249272,-8.17565505035686,-17.59142651067949,-6.673277788939335,-0.5793951052461169
2023-12-06 17:36:02.279261,1.0440987991341986,-12.883477018023491,-5.940848111034503,-2.557154450502188
2023-12-06 17:36:02.320132,-3.729999271267942,-0.5347536264407524,-1.0574837289239611,-0.0726367449798483
2023-12-06 17:36:02.464590,-5.980412703968485,-10.673849164096962,-4.011853352412756,-0.1480399999936918
2023-12-06 17:36:03.167275,-1.4113649202558094,-9.42371935955576,-3.845360483764505,-1.100427005239684
2023-12-06 17:36:03.281863,-8.601535720276495,-4.636254339358208,-1.2790697894093952,1.4953989105491776
2023-12-06 17:36:03.320904,-10.02182871338095,-16.32977310280363,-5.922555672781198,0.2426514725077268
2023-12-06 17:36:03.369007,6.767443645360448,0.8998483367539167,-1.933284599859836,-3.1307944558932794
2023-12-06 17:36:03.486409,4.631664677311542,8.557923446956298,3.2388989890518167,0.1042699325359306
2023-12-06 17:36:03.540174,-12.196464676863046,-10.383447229628684,0.01112395619364,4.595416740062057
2023-12-06 17:36:03.738720,-4.963707376779471,-2.570456699056973,0.5246574870343329,1.999229466779432
2023-12-06 17:36:03.890896,1.3805120252480696,-1.861012832368968,-0.8562324410903235,-0.6833601208287515
2023-12-06 17:36:04.236965,-8.556111954503006,-5.512074639790795,-0.7514567982911986,2.248770013180002
2023-12-06 17:36:04.292755,-2.3550127625504413,7.080240566607247,2.8291107598475604,1.530387554303504
2023-12-06 17:36:04.588550,10.828014911479704,0.2896182268838647,-1.0722428974872606,-3.361301267769434
2023-12-06 17:36:04.635116,3.9700593620995273,-1.2704037845096106,-1.3565006028698257,-1.8666100225309776
2023-12-06 17:36:04.673069,-8.619397164877785,4.620513249329366,2.491938044033855,3.0945785304828792
2023-12-06 17:36:04.853633,-7.179807188287943,-0.686215415169762,1.166717984746814,2.7038169061703488
2023-12-06 17:36:04.904052,-4.190455991013572,3.4426235424764133,1.232173105725803,1.3174948602691947
2023-12-06 17:36:05.196517,-5.0373384851618574,-2.2325353038544056,0.2580752648384255,1.8466885153512425
2023-12-06 17:36:05.445824,2.1430126179692515,-14.522485749993216,-4.3680091740710445,-1.526792407395163
2023-12-06 17:36:05.500086,-2.9179463488311628,-10.918511696504488,-3.2416038901315267,-0.0782276075016161
2023-12-06 17:36:05.646288,-11.353741164687122,-3.4836131044325773,1.352905867071737,4.581695050640833
2023-12-06 17:36:05.755212,7.386804888094909,9.600816358611516,-1.0491366710793848,-4.590039843548882
2023-12-06 17:36:05.830891,8.329433772267313,17.16037835775714,-1.2923719202810915,-6.3352785400898135
2023-12-06 17:36:06.652202,-10.524331718571672,11.395111127570168,4.668504545637843,4.795989001354196
2023-12-06 17:36:06.848739,-1.089464430512936,10.387865772364531,2.286285269553637,0.3879993477593654
2023-12-06 17:36:07.013465,7.826267479909681,10.981726241138432,0.1850857659008233,-3.84371061521911
2023-12-06 17:36:07.347740,8.63687047634105,6.471956698590605,3.294034112166824,-0.6332663206610936
2023-12-06 17:36:07.367762,11.368397772503943,4.792966923565824,1.1861069445641004,-3.1006259604482795
2023-12-06 17:36:07.676776,-6.50702896021513,11.224764181868927,3.1473545925652484,2.5671550755947363
2023-12-06 17:36:07.843663,-8.569434808576194,12.4035533954834,5.0569881377558135,4.658245366068733
2023-12-06 17:36:07.900980,11.800526534225256,9.495485357973337,1.5965202937742229,-3.7563013234401095
2023-12-06 17:36:07.981321,10.719578353193327,17.62662823329694,3.705088657041676,-2.9634628854058045
2023-12-06 17:36:08.068912,6.103076126658,7.515041605714339,1.5165004380408047,-1.9591640078960129
2023-12-06 17:36:08.485108,1.883796831287854,-8.294879620329928,-2.462405895196348,-1.6136378722605125
2023-12-06 17:36:09.704400,-6.928367175685025,8.028691483167142,2.311051862849825,2.5603549665488616
2023-12-06 17:36:10.566297,-5.214937860885362,7.9522337732781425,2.4984612562677144,2.435058972484802
2023-12-06 17:36:10.652904,-9.285807102872832,-5.549520957548519,1.2865538881127558,5.405628267348072
2023-12-06 17:36:10.689676,-3.74076453396078,7.164165309570315,2.087874624825279,2.0240646869889307
2023-12-06 17:36:10.766015,5.161562415973834,9.084211667559885,-0.7353758493259162,-3.933209190485623
2023-12-06 17:36:10.917154,-5.592318793298344,0.0709085432624883,1.6451601932998807,3.783049988523011
2023-12-06 17:36:10.968281,-2.126709134465772,-3.8431123420026574,2.269765819770154,3.5764738244959164
2023-12-06 17:36:11.069513,-3.682486725097027,-6.778417665026873,-0.2138638446938265,2.2806743674089223
2023-12-06 17:36:11.214818,-10.576491412614152,3.77319523855941,2.2495894839663384,5.526838127807972
2023-12-06 17:36:11.450036,4.539901871827509,4.436250408611585,-0.4463830395863054,-3.1437898189447377
2023-12-06 17:36:11.490234,0.4142634027925915,-6.64373557618415,-1.611236643841324,-0.6738264880801983
2023-12-06 17:36:11.557301,0.5262019649037546,-2.498146607289584,-0.2310763171335954,0.1187425140146732
2023-12-06 17:36:11.592775,16.94406730609361,-2.375479633963593,-2.6518249987204303,-9.406114057771903
2023-12-06 17:36:11.687586,-2.860462446602946,-11.298386883710313,6.4650827762981455,9.093086699381256
2023-12-06 17:36:11.715211,-17.52218143262797,-8.592856113139504,12.652382988065282,21.34293226066869
2023-12-06 17:36:11.948037,1.3446707309898762,-2.1703460484951624,4.074601248949219,3.57009184606717
2023-12-06 17:36:12.021129,3.287800922191667,5.673851368049652,1.6395343290188182,-0.9464976244362092
2023-12-06 17:36:12.086306,-5.481502272696178,11.073183754176442,2.0432911399224727,2.724636792698108
2023-12-06 17:36:12.134960,5.787582678363437,-6.569458743179797,0.8307803388224709,-0.9672435089929532
2023-12-06 17:36:12.643548,15.010535904243824,-8.288941281841934,-1.2556738111105488,-6.959032817899174
2023-12-06 17:36:13.011957,11.424857945519026,16.540283327140113,-8.71626387043199,-16.642448687217698
2023-12-06 17:36:13.360039,6.632863196469772,11.237132568383853,-6.946621399243715,-12.015185383186628
2023-12-06 17:36:13.500289,0.7217527630108914,3.938272628652972,-0.1790640534439797,-1.2077856264358375
2023-12-06 17:36:13.683014,2.0951953263886174,14.637575717338962,-1.3458118895471056,-4.749005406912591
2023-12-06 17:36:13.841045,1.9224297864573376,6.766923808942048,-1.406938686603976,-3.5433105563280307
2023-12-06 17:36:14.095421,-2.9518857502286675,-7.185977828011205,-1.0378649157123556,1.448376133310772
2023-12-06 17:36:14.679196,3.2573762083186693,-17.137015531075658,1.2400668011012963,2.03174060004645
2023-12-06 17:36:14.821793,5.906650594962995,-14.273522921569748,5.681721050215957,4.751117282864131
2023-12-06 17:36:14.972465,5.616713802481215,-3.7332739418001695,1.6980434078663067,-1.02288657517327
2023-12-06 17:36:15.000994,9.167178804046822,-8.750899734147533,-2.2440220431778,-6.450715916838891
2023-12-06 17:36:15.051997,5.067268702956151,-5.14151933291037,-2.867161581466017,-5.324895690595156
2023-12-06 17:36:15.117144,1.7482180590533298,2.5376008345637286,-3.9604789527897015,-5.596069819070862
2023-12-06 17:36:15.153157,-0.1152474481747887,-3.970734764945872,0.3288498638871547,1.045752549222465
2023-12-06 17:36:15.233632,-2.2321751550827464,6.873416107166646,-3.008885187027496,-3.034437584797374
2023-12-06 17:36:15.471228,-1.0397162300237748,23.371477696243044,-11.92000756474498,-15.507227578388967
2023-12-06 17:36:15.849982,-2.85732890649926,5.687229576416727,-1.9750993357965565,-1.0579009541452642
2023-12-06 17:36:15.944874,-4.023672346611998,-12.106801048200689,8.861024379942732,13.694051251388236
2023-12-06 17:36:16.005076,-2.449056138395057,7.382447032562442,-1.2333391792988668,-1.017993615761206
2023-12-06 17:36:16.100079,-4.013124381014107,16.21326785163941,-5.870609633802772,-6.1710202825646405
2023-12-06 17:36:16.216652,-4.878196301827886,-3.605170980151411,3.918792179357483,8.253474572564913
2023-12-06 17:36:16.454286,2.54865097811444,-5.467829373825114,1.656965421009283,0.7671720150468319
2023-12-06 17:36:16.472301,0.9073503673268202,5.035020868652277,-5.76289461072509,-8.120345387250914
2023-12-06 17:36:16.639554,-10.813664072752095,4.861280905434051,-0.0892793791539694,7.169070842222898
2023-12-06 17:36:16.769936,-3.5346548008877043,0.1487794690819808,4.0860360347968205,7.495184853626991
2023-12-06 17:36:16.950682,2.996443374188744,-3.5502535712303835,1.3776840939635735,0.018181082278165
2023-12-06 17:36:17.103063,1.0921988370060467,-1.2306031558395285,-2.597567702519611,-3.032871895057259
2023-12-06 17:36:17.181735,6.460441118096381,0.0917684711354915,-5.220209721294473,-10.521522099541553
2023-12-06 17:36:17.570565,2.962539534504681,-12.358387936504618,3.834258844312783,3.927302608923261
2023-12-06 17:36:17.666096,12.278846805226031,-36.87095579395852,16.999046873328396,15.552240996281284
2023-12-06 17:36:17.768280,24.07866087383112,-43.37029908819931,21.8479199301314,12.765865425504003
2023-12-06 17:36:17.939822,8.571606620187195,-18.06077657660163,17.905727833375693,17.210847625227082
2023-12-06 17:36:18.112308,0.9681135423842876,2.927047896621273,5.813445323786199,6.523924901840156
2023-12-06 17:36:18.618162,-8.91857481402276,9.047954801041234,1.4250895056573785,8.303638037458255
2023-12-06 17:36:18.717374,-14.63777400233224,10.486142293484985,2.6733109976956912,14.275231970168877
2023-12-06 17:36:18.756383,7.0114706919309215,8.513916215798874,-6.868121411792717,-15.059445330594178
2023-12-06 17:36:18.889981,3.94118018141939,14.909718336570954,-12.367326631241212,-20.184174327990085
2023-12-06 17:36:19.521200,-7.863243379081953,15.7975129726934,-9.312729996124768,-6.49049431718414
2023-12-06 17:36:19.693230,-2.4220046904368577,11.062331669097688,-8.79061971008001,-10.110992103679282
2023-12-06 17:36:19.813774,-5.450152281654452,14.305927349570124,-9.246721885632812,-8.542914320723472
2023-12-06 17:36:19.877321,1.6718869232074824,2.488304323612672,-6.194395725835217,-9.562200947313434
2023-12-06 17:36:19.943840,1.451492412245441,-0.576901132255358,-3.231644844817382,-5.540732246042459
2023-12-06 17:36:20.029127,-8.853780799633958,16.484187866646828,-9.794157572819437,-6.422235164246465
2023-12-06 17:36:20.361945,3.5685318202811525,8.15993049276219,-11.284138506047787,-18.48294015390253
2023-12-06 17:36:20.603313,5.50174052913192,5.342265108969153,-9.222442973244576,-17.61336839209371
2023-12-06 17:36:20.940911,-3.126075419368072,14.589950144113947,-11.925280789034044,-14.122649849718806
2023-12-06 17:36:21.102333,-4.597210833045435,4.985421713185346,-2.0371557432487406,1.0069999161645156
2023-12-06 17:36:21.154621,-13.58823710154243,17.60254014242301,-5.187058838626452,4.1249443219304895
2023-12-06 17:36:21.293387,-9.168688741793645,16.853714899950297,-8.912092818923124,-4.575340742536989
2023-12-06 17:36:21.329544,5.26340105489922,-15.544728452595802,10.358682527805929,9.961092278673226
2023-12-06 17:36:21.532164,1.4218796994949996,-3.827632963894212,3.036433796793176,3.066192453089285
2023-12-06 17:36:21.955225,0.3615188652681624,1.879322119048064,-3.0684466754163164,-4.56367630089529
2023-12-06 17:36:22.062828,13.852780832686102,-21.316245700517587,8.955698967985285,-0.0932043983139653
2023-12-06 17:36:22.268820,4.062413884098105,0.942271802691084,-2.7567470172463784,-7.919882245814549
2023-12-06 17:36:22.318348,-15.042882348791872,22.80898144591248,-7.913802828339545,2.1649980585519097
2023-12-06 17:36:22.447008,2.408930063295029,2.187852476362168,-4.0782866973571945,-8.03567750003021
2023-12-06 17:36:22.494832,9.529943482568756,-5.930802869772689,-3.4369395548423407,-13.34586870499876
2023-12-06 17:36:22.671395,-7.451735782554829,6.732334028520199,0.7763984963175968,7.881185558326342
2023-12-06 17:36:22.743191,6.4820719151765,-7.288557161689162,0.3206066313296084,-5.361595379075829
2023-12-06 17:36:22.805427,16.241103842037766,-28.53798181504851,8.791601691505754,-1.794317969552528
2023-12-06 17:36:23.043390,-2.0748541265952216,-1.5378227393658597,2.090846808359065,5.027376199566463
2023-12-06 17:36:23.116264,-5.800206777511322,18.216988275541446,-12.07064670447504,-12.05032447675764
2023-12-06 17:36:23.155506,-1.4209495045917426,-1.9444037572997828,2.229980354422489,4.540802023510364
2023-12-06 17:36:23.375136,-7.11702886029509,1.0957276752401928,5.316354919014549,14.15175671644757
2023-12-06 17:36:23.718618,-7.49458626675683,7.462456059951601,-0.95461606807888,5.579099135736834
2023-12-06 17:36:23.839566,2.207374027514166,0.9444356011973362,-3.4086483434794546,-7.3709660358835345
2023-12-06 17:36:23.874863,1.082690482548745,11.86179713366946,-13.681417364346176,-21.522131904874072
2023-12-06 17:36:24.018811,-1.0860459924960022,4.336479997685047,-3.3894222423545,-3.873333433213311
2023-12-06 17:36:24.529092,8.245349610456046,-13.23937428896833,4.94519894304829,-1.2589363767385218
2023-12-06 17:36:24.706860,2.4344731656240266,0.4590343582975307,-3.1434712025383864,-7.216533507739702
2023-12-06 17:36:25.013894,-5.729515562509939,3.78041818927588,2.266040137216854,9.453505549516969
2023-12-06 17:36:25.231507,1.2107117499010047,-4.567710412230115,3.482930153280941,3.9686786211386815
2023-12-06 17:36:25.561514,-1.7093973714977506,5.799453796386215,-4.251992007809554,-4.502877549768474
2023-12-06 17:36:26.168058,-2.4107734656990583,6.230293698646494,-3.9370857706168,-3.299050980476099
2023-12-06 17:36:26.598610,2.5386231556275307,-2.833680359071491,0.206373888240496,-2.319558675346125
2023-12-06 17:36:26.859201,-1.6335799578220838,1.7860935532740496,-0.1040950886822213,1.604777579193296
2023-12-06 17:36:26.999348,0.1092567519336304,4.841805487405157,-5.225486793384534,-7.8742113706281
2023-12-06 17:36:27.105980,-3.166893305061363,6.273127818116523,-3.15385502829999,-1.338862131716847
2023-12-06 17:36:27.585466,-9.037714714645007,9.161883394964622,0.2225489899558879,9.864210331086824
2023-12-06 17:36:27.677819,1.4565757854008017,-5.122119659558096,3.795082406205837,4.179188462529397
2023-12-06 17:36:27.715407,5.371890627494787,-15.534203162013458,10.476533265635974,10.049664876191263
2023-12-06 17:36:27.869858,2.973074808748347,-6.366671465391008,3.442972714837899,2.06755166824797
2023-12-06 17:36:28.003969,5.117560849994966,-6.358721401356779,1.0850194924596317,-3.697629080497961
2023-12-06 17:36:28.275310,3.4814850252809983,-8.433495980313172,5.0610449016896055,3.952879580497132
2023-12-06 17:36:28.310316,2.494639314650977,-1.5759339511998176,-1.0797856733003215,-4.183303272001485
2023-12-06 17:36:28.782346,0.5721494967984181,-7.421109082860808,7.182150213557998,10.164360283879237
2023-12-06 17:36:28.921832,-0.8403085796750501,-10.94857279422653,12.444560775388112,19.499492263201034
2023-12-06 17:36:29.056491,-5.758187051163014,6.2203905059072975,-0.2374493062390777,5.695978750215055
2023-12-06 17:36:29.100779,-8.106241577004164,10.89135684384101,-2.5741013316734587,4.651058835435263
2023-12-06 17:36:29.194819,3.349634187558742,-2.822734832711272,-0.7178940195361032,-4.520494056290846
2023-12-06 17:36:29.402798,-1.8317339496573968,0.153325578379443,1.844963871774025,4.701579524444212
2023-12-06 17:36:29.499588,-7.35283400631243,5.724584901803018,2.054463591238845,10.755494540494697
2023-12-06 17:36:29.711632,4.389601991139746,3.284554763076659,-8.302230152149736,-16.916857125641148
2023-12-06 17:36:29.857302,-2.082291684261489,9.71727081865289,-7.945184201026738,-9.664852715166688
2023-12-06 17:36:30.006494,-1.7720357370212587,-0.6406434650374601,2.6181561895757786,5.788624629045252
2023-12-06 17:36:30.103764,9.006739552704499,-13.836338528298326,4.61248810133964,-2.391913367353298
2023-12-06 17:36:30.196980,4.378016215317772,-4.382223174309583,-0.2362256039668838,-4.8357786599027
2023-12-06 17:36:30.781228,2.7482373230918613,-3.9234542006065065,1.082679848354153,-1.183044737495725
2023-12-06 17:36:30.841745,-1.981094283590248,-3.034974268885512,5.375274907651154,10.113535344975796
2023-12-06 17:36:30.905767,0.515640194956038,-1.8696934257418067,1.38326872029353,1.5783445915931826
2023-12-06 17:36:31.118249,10.793673605584784,-13.885602267283854,2.643551979731709,-7.121157184479961
2023-12-06 17:36:31.217815,1.785256327158484,-5.515485637832865,3.812151678675189,3.900986905320241
2023-12-06 17:36:31.366336,0.0584082020574408,2.596937423304205,-2.8103279091507694,-4.218555784679878
2023-12-06 17:36:31.419796,5.055139026964431,-6.799088788147508,1.5292563920164637,-2.8619688970374875
2023-12-06 17:36:31.510944,-0.4233835378160998,-1.032037025547022,1.5415247717219662,2.7793654356173843
2023-12-06 17:36:31.617588,1.111710864565591,2.7222470060845434,-4.118946812113484,-7.246597604202551
2023-12-06 17:36:31.682636,2.5853378146261017,-5.677563352187468,3.0799481100736985,2.0023274761259167
2023-12-06 17:36:32.130343,0.6910644788413638,-1.5477392745481875,0.8404400854854785,0.5950962679576418
2023-12-06 17:36:32.735593,1.0917683954777095,4.594955744041345,-6.072154112982497,-10.140051925120549
2023-12-06 17:36:32.773600,-0.4691230992520071,-2.6296427619731544,3.278159870296168,5.411931553734431
2023-12-06 17:36:32.920868,-4.626658667791184,1.7437932051635796,3.3272140171946623,9.703982129297035
2023-12-06 17:36:33.273362,-8.958597737749844,16.102298064427803,-6.927378399735392,-1.2332821595836898
2023-12-06 17:36:33.436574,-3.073196828317584,1.350454444563296,2.012936588283164,6.149597497249362
2023-12-06 17:36:33.880830,2.399300059594942,-11.915068963364174,9.838253480929998,12.30256273977304
2023-12-06 17:36:33.936887,0.7708535195340833,-1.3644465588475914,0.5734424272770121,0.090850676964448
2023-12-06 17:36:34.395710,4.87768084708167,-4.751923726559144,-0.4653954245267298,-5.617998569185134
2023-12-06 17:36:34.549913,5.821387021846494,-6.864145392787318,0.6900279526839186,-4.834846671872389
2023-12-06 17:36:34.916771,6.5637114497817,-6.465005209409323,-0.5777647344416849,-7.460270494736052
2023-12-06 17:36:35.060876,3.900970688827791,-8.04099225738744,4.075546744374532,2.1729931781882166
2023-12-06 17:36:35.137902,-13.1770214057371,13.89526482200069,0.2775312060692012,13.592403065508044
2023-12-06 17:36:35.245246,-15.426089163163352,16.92080104831516,-0.3472235915532903,14.88414975138346
2023-12-06 17:36:35.484116,-6.684894939386996,1.3828904651661449,6.109349547761557,15.810873668721149
2023-12-06 17:36:35.520701,-12.276792886848344,8.70152733967128,4.741004986307109,19.33888661756513
2023-12-06 17:36:35.658533,-12.227319341284945,4.017187246680996,9.645731194449075,26.57572185969618
2023-12-06 17:36:35.712120,0.7599585823584918,-15.482767812729143,15.4392902024808,22.31084091419664
2023-12-06 17:36:35.853688,6.273766798565289,-16.65169313539644,10.383935819337806,9.315290251508694
2023-12-06 17:36:35.928070,0.2726404679735483,-8.35559289703744,8.467864209491394,12.409810897819456
2023-12-06 17:36:36.060943,-1.1363624429019854,-10.0538349041663,11.865810829738358,18.870418339561457
2023-12-06 17:36:36.167562,3.26676296520556,-16.551160635261063,13.67545497304674,17.23902919041103
2023-12-06 17:36:36.889367,-4.041183719213532,-3.3032414680117546,8.062279908487783,16.06756211564409
2023-12-06 17:36:36.978424,-14.476874228631884,16.986770404082904,-1.3564670334291995,12.244768208137746
2023-12-06 17:36:37.035102,-5.058945564661633,6.066440699697339,-0.6268445457788712,4.074125797433553
2023-12-06 17:36:37.109045,8.821757091020112,-14.099133236074946,4.695716701958362,-1.5741855032485856
2023-12-06 17:36:37.228313,3.8229954993982735,-7.3649102808349,3.3296479271394275,1.288090632606334
2023-12-06 17:36:37.284732,1.775791977240475,-4.745218815256421,2.9110657392674613,2.6764869061088743
2023-12-06 17:36:37.340620,6.058922534161723,-9.962714498798237,3.475784296938016,-0.6504130549747534
2023-12-06 17:36:37.502450,-1.0015314028719648,0.2928070911713121,0.8028454646019619,2.229981154747061
2023-12-06 17:36:37.823396,3.1220059601062364,-3.985434850254681,0.5546188600063059,-2.145486510280972
2023-12-06 17:36:38.093892,6.221312116210209,-4.217970785401606,-2.7721492797311584,-10.12469239509536
2023-12-06 17:36:38.167492,-3.933210364832471,8.644438756771562,-4.592357673516629,-3.0077027295185355
2023-12-06 17:36:38.226396,4.874611121135649,-6.614642130584896,1.2811501284719995,-2.7356988639172086
2023-12-06 17:36:38.336970,5.494445998379107,-3.63422753318714,-2.5718576590888014,-9.091587789673
2023-12-06 17:36:38.398342,-8.925251447060857,18.29057987305759,-8.942616288291331,-4.727933296136806
2023-12-06 17:36:38.571000,-3.568255955049209,9.320340257355308,-5.707537756067996,-5.052717903865864
2023-12-06 17:36:38.813742,-0.7230716237642428,4.618174988661558,-4.053915924449954,-5.3229795786087095
2023-12-06 17:36:38.999479,-0.8509765098295232,2.894800676767085,-2.087268224825759,-2.268644763357041
2023-12-06 17:36:39.132905,4.615764801881555,-2.1512913241236062,-3.134277829800925,-9.063284171914969
2023-12-06 17:36:39.533879,-2.074985089123609,9.463421951011243,-7.570218021868632,-9.299007999944198
2023-12-06 17:36:39.585241,-4.78910791001082,9.160162787883849,-4.089149678853614,-1.50973143187392
2023-12-06 17:36:39.651243,-0.9012877999736678,3.3632999682198914,-2.520415644169126,-2.871975537160437
2023-12-06 17:36:39.738306,2.4826528129287384,0.0976664629206671,-3.0316622268427005,-6.856915225220459
2023-12-06 17:36:40.025608,7.981560215260549,-9.20324361903957,0.3185768240353868,-7.055825959869945
2023-12-06 17:36:40.092087,2.716998031015432,-2.621040069243201,-0.4696413987626939,-3.2194584487684934
2023-12-06 17:36:40.186561,-1.7935971755927755,2.792709057236823,-0.8857411613510492,0.4261539543700983
2023-12-06 17:36:40.471476,2.818119709693497,-2.833465820233577,-0.353361067579026,-3.15725102158116
2023-12-06 17:36:41.026891,4.529626225337232,-4.99418117894934,-0.0872662330376401,-4.374528525563847
2023-12-06 17:36:41.177457,2.618618053523296,-4.941959950234474,2.088424361454642,0.6926964865814462
2023-12-06 17:36:41.221077,-5.317172339619145,7.649621109396174,-1.834269302252454,2.291612221342987
2023-12-06 17:36:41.309588,-6.553639007544367,10.65216634682022,-3.5302126465161145,0.905872384472832
2023-12-06 17:36:41.416390,0.1540257202860834,-0.8846426934365483,0.713412443367552,0.9566552440833996
2023-12-06 17:36:41.597485,-2.137107659763493,3.3809966127532687,-1.0748990173019877,0.4281631808682147
2023-12-06 17:36:41.911720,-1.5378171678701251,3.610060195835111,-2.014519479876556,-1.5473160707124047
2023-12-06 17:36:42.092527,0.8647506610438062,-0.8473510664625147,-0.1611222235547646,-1.0197457269107677
2023-12-06 17:36:42.804270,-0.9432640217369544,1.9773940503658884,-1.0027349762282851,-0.5856244525462078
2023-12-06 17:36:42.870148,-0.6976662010243952,1.4890700914934836,-0.7765399054762934,-0.480322186453785
2023-12-06 17:36:42.900574,-5.441325881795136,7.063773853128696,-1.034168722453018,3.550118291985392
2023-12-06 17:36:42.950286,-3.0916351120540795,3.877689652596626,-0.4588904961729032,2.2210036946761136
2023-12-06 17:36:43.074029,-0.8170806608238974,0.8901730245761211,-0.00558567714917,0.7820543102326034
2023-12-06 17:36:43.244665,-8.364341810823394,11.122887264206172,-1.8320704406841333,5.054587251211169
2023-12-06 17:36:43.409231,0.4725366135912237,-1.047009159933293,0.504421559828977,0.3477013646810009
2023-12-06 17:36:43.432765,5.936869726769348,-8.457745703347623,1.822515234372423,-2.7441858098868384
2023-12-06 17:36:43.493041,0.6846762981034281,-0.685739599993326,-0.1274044362940497,-0.7934399844295749
2023-12-06 17:36:43.702364,7.462584686213604,-9.510486012954196,1.107113122371701,-5.20861009785146
2023-12-06 17:36:43.760302,5.955015174236627,-7.887280648406774,1.1862296465229392,-3.693628118517321
2023-12-06 17:36:43.879383,2.778090136731341,-3.904119779329322,0.767254812708918,-1.3841017265470894
2023-12-06 17:36:44.005579,7.589388547217997,-10.256302860416747,1.7263109290719372,-4.381706938376397
2023-12-06 17:36:44.274302,3.7197769371534375,-4.383039659879182,0.1491221000098921,-3.173378104437907
2023-12-06 17:36:44.318183,1.465655818285377,-1.1218573534789638,-0.6003151588276399,-2.217737777982584
2023-12-06 17:36:44.493086,0.934430353581582,-1.3660438234542454,0.284927625107341,-0.4010673063328202
2023-12-06 17:36:44.711331,-3.423099190491983,4.18024638558378,-0.3589587597375697,2.63968688062947
2023-12-06 17:36:45.137305,-5.971952164366907,7.847984803569969,-1.175653009410534,3.7532833453196495
2023-12-06 17:36:45.227333,-5.999207709781396,7.73977723579106,-1.0273379776541052,3.997114018908892
2023-12-06 17:36:45.382129,-2.001068110811685,2.8096424603306387,-0.6090392884905083,0.9562322246725052
2023-12-06 17:36:45.505662,0.0189720369955546,0.0839935319368131,-0.1537852626996628,-0.2117233543960481
2023-12-06 17:36:46.070060,1.2957567507607213,-1.824422133048332,0.3341925867623704,-0.6572571872180913
2023-12-06 17:36:47.224706,2.8745055842506653,-3.75256952595151,0.480454648281971,-1.8872362104470075
2023-12-06 17:36:47.851225,-1.310619769658395,1.2391439918532487,0.2192935344790881,1.5610445599928664
2023-12-06 17:36:48.025940,-0.5612920717876578,1.0191258605427451,-0.4407895155170729,-0.1154032792864599
2023-12-06 17:36:48.696656,3.527505715338954,-3.564773601655296,-0.4983333337444737,-3.9458597979780574
2023-12-06 17:36:48.834135,-1.1018790893731982,1.296896649003367,-0.0886811554077382,0.9068218961287384
2023-12-06 17:36:49.011285,-3.986817957019519,5.569055197248461,-1.1358835800918805,1.9782635429867272
2023-12-06 17:36:49.097919,0.4761656939225466,0.2710529065233201,-0.8906318976878868,-1.739811345192643
2023-12-06 17:36:49.158215,3.451216402644292,-5.1094532506504615,1.2185563161594812,-1.3113958529545082
2023-12-06 17:36:49.241861,2.3994816560343604,0.0362922196500015,-0.4497008100559806,0.3332043920026196
2023-12-06 17:36:49.768309,-1.2382541353198984,3.7468359456340345,-0.7967244641099773,2.130546832503807
2023-12-06 17:36:50.359334,2.012161224746835,-2.333903393561708,0.250883187401696,-1.134416688837988
2023-12-06 17:36:50.526336,3.1698555964471686,-0.6458781803726364,-0.4065994051445372,0.0107494533081818
2023-12-06 17:36:50.699578,-5.054622514750577,7.041247593379304,-1.003528882195135,3.65375163360978
2023-12-06 17:36:50.874528,-3.251138984879596,0.7897725669213299,0.3492794236859699,0.1215205083153454
2023-12-06 17:36:51.585131,0.9361524691334716,-1.6102892076735422,0.2495921831108426,-0.8251502693958067
2023-12-06 17:36:51.660903,-0.3562178135519928,2.277990782465312,-0.5633325668296931,1.3491734195179466
2023-12-06 17:36:51.749347,2.2249401777496214,-0.3838231459799237,-0.3074609859442429,0.0590048726182044
2023-12-06 17:36:52.511816,4.347387628752747,-1.6755675803307863,-0.33587441540447,-0.4631686258322808
2023-12-06 17:36:53.138881,4.441144709024144,-3.17190412977468,0.0506585212702049,-1.3443429378997047
2023-12-06 17:36:53.386801,-4.181829129511667,5.04861660286269,-0.6351117722003337,2.5475283283948995
2023-12-06 17:36:53.704147,-10.247062436623477,12.241269222009736,-1.503285525742142,6.117487972735439
2023-12-06 17:36:53.763468,2.956572176043033,-5.073448238703028,0.8317710708531277,-2.64426047230626
2023-12-06 17:36:53.923766,8.920657761574821,-11.733552617988211,1.5826853682408148,-5.897400817558562
2023-12-06 17:36:53.955319,4.764382308008241,-4.780992090960023,0.4404455534755508,-2.2478150733467905
2023-12-06 17:36:54.006586,8.390370953646164,-10.98816202783415,1.488228852105577,-5.498243355559919
2023-12-06 17:36:54.150770,5.819701739996534,-5.590994192524359,0.4812259482322716,-2.5942509420417874
2023-12-06 17:36:54.623922,-1.93655008555204,6.574850399992333,-1.4637650888603415,3.690321288648596
2023-12-06 17:36:54.811440,-5.7592492598017655,8.575906668210454,-1.3432902084426237,4.410050739942212
2023-12-06 17:36:54.849325,-5.681794527317673,8.138000545386785,-1.243112129702865,4.151914751438402
2023-12-06 17:36:54.958414,0.9072707163674728,-3.050631564511568,0.6624475495621989,-1.663490063516171
2023-12-06 17:36:55.090897,3.337099211321081,-7.539031902849029,1.472084190702837,-4.011182169188838
2023-12-06 17:36:55.187444,8.634925366326126,-10.25730109990649,1.302746439862449,-4.959269715223082
2023-12-06 17:36:55.522021,12.396180907944526,-18.733340564325115,2.997203826707591,-9.46246581648231
2023-12-06 17:36:55.579862,-4.800035453365787,0.0762118176438265,0.8033054372440899,-0.5093267841484282
2023-12-06 17:36:55.783910,-4.327425566586534,4.521453256763915,-0.5157481551558112,2.141962084004652
2023-12-06 17:36:55.889972,11.225533883358322,-11.851722241563529,1.3329778024731151,-5.523902295800648
2023-12-06 17:36:55.987972,3.150344474429187,-3.491209296077596,0.4155407030754527,-1.621866830848693
2023-12-06 17:36:56.318987,6.3272723139636575,-11.698683978253072,2.168972593439327,-5.99414741082179
2023-12-06 17:36:56.435937,18.448090837970163,-23.697842039373523,3.451196024255588,-11.449223606770548
2023-12-06 17:36:56.462943,4.270940544988354,-1.968633637905934,-0.1960661639297925,-0.5888080480234138
2023-12-06 17:36:56.519576,-8.909823005126038,6.612781269956102,-0.3438579761553944,2.740208950403697
2023-12-06 17:36:56.695828,-0.176916937016005,-1.873175197394448,0.5488722097672804,-1.0786357754370044
2023-12-06 17:36:56.841100,8.217196413345413,1.3025653517304658,-1.7960976408188702,1.7937688536947427
2023-12-06 17:36:57.115288,1.063428703837357,2.1291500004109154,-0.799986243559333,1.3792084413881789
2023-12-06 17:36:57.269906,-6.296941956540217,0.3143055425695356,0.9803291897918764,-0.5832324736536014
2023-12-06 17:36:57.441403,-12.240805628076677,11.66821230287714,-1.2704922201896829,5.141357992672359
2023-12-06 17:36:57.521208,-15.835791642796902,9.556010177040012,-0.0611830957108873,3.46525685525624
2023-12-06 17:36:57.560729,-8.840730230336543,-0.3707451638593094,1.6061055422633117,-1.3049911516634032
2023-12-06 17:36:57.660776,-10.388081162395526,12.561155900924971,-1.8926605021764813,5.813015930119026
2023-12-06 17:36:57.983642,-8.048442384112711,4.934716016121563,-0.0788777135393718,1.7858579311971956
2023-12-06 17:36:58.109080,0.4325771846506065,-6.6692216594461815,1.8720047254048129,-3.675729868284706
2023-12-06 17:36:58.233762,-1.1714331676715442,13.012475400677856,-3.636585501903964,7.174214800835142
2023-12-06 17:36:58.462499,8.34803316916266,-0.2370252401455994,-1.3461112009376583,0.9668401968843792
2023-12-06 17:36:58.853678,8.68000749590129,-21.479164016342963,4.891236408427587,-10.846360069279807
2023-12-06 17:36:59.048446,2.035888714415464,-2.6289796867176825,0.4302785196279847,-1.1805165975526002
2023-12-06 17:36:59.364271,7.387593720808009,5.284609104551556,-2.8231169606985587,3.917671862696351
2023-12-06 17:36:59.444738,-6.340545296606406,-2.990731560489193,1.948969486883965,-2.467666589147794
2023-12-06 17:36:59.575685,-14.799228569732431,-4.562708185849629,3.834253268772176,-4.448333299796156
2023-12-06 17:36:59.866369,-9.459217447996782,0.4359799149652124,1.4385002391885011,-0.9896989822833688
2023-12-06 17:37:00.134848,-7.403480824547424,4.887013208809444,-0.2505330313678512,1.7257050836190884
2023-12-06 17:37:00.324057,7.566610319938528,-0.5118166955682665,-1.103777382474745,0.7473340197199974
2023-12-06 17:37:00.550204,1.9163793103940767,-0.0299423363867992,-0.3210169003544863,0.2468224078746931
2023-12-06 17:37:00.847822,-19.868266691379684,5.826309827986052,1.4886291163770118,0.5173958673837166
2023-12-06 17:37:00.928202,-5.043011444133835,4.360749780260111,-0.5108000899291766,1.707948706515784
2023-12-06 17:37:01.014230,10.978857072486283,-0.2397679582773247,-1.7315432719736237,1.376610419721234
2023-12-06 17:37:01.487289,-16.817266127433236,3.3313956418355817,1.7250526955272356,-0.466757436387943
2023-12-06 17:37:01.636080,-30.815355426947693,11.35296356816713,1.5031749275529596,1.909388634655602
2023-12-06 17:37:01.774945,-0.4498805889661177,-0.6333178979715225,0.2712315642180049,-0.3803022744271968
2023-12-06 17:37:01.912887,9.27907829942542,-4.68811374292313,-0.0343456238864512,-1.1979586158365847
2023-12-06 17:37:02.060964,7.888244994795276,8.724397510357358,-4.028207415827937,5.746604675084759
2023-12-06 17:37:02.498161,21.444732731279885,0.6901172569113866,-3.688224359162487,3.360997721460633
2023-12-06 17:37:02.650814,5.33158321359825,0.8658249196188988,-1.1334312655389005,1.2202609724801423
2023-12-06 17:37:02.812629,-5.9569055398903785,7.174969138338834,-1.3288650062738936,2.9568512689129323
2023-12-06 17:37:03.156268,17.872232280566134,-11.98298173331114,0.9630994161198928,-3.759671491690465
2023-12-06 17:37:03.228661,17.097231902432515,-13.257807147681714,1.5217975549662786,-4.500950595980903
2023-12-06 17:37:03.367016,-13.954835892241816,7.500689158459689,-0.1849551797989234,1.9494612147025585
2023-12-06 17:37:03.653725,-21.629344031504644,10.220800257578142,0.1406248859683679,2.244923092984576
2023-12-06 17:37:03.688568,-0.5873279236303285,-0.4005178095173783,0.2236012830084991,-0.2794301277077259
2023-12-06 17:37:03.984537,4.573978377705968,1.4516660253444813,-1.1973297383140538,1.4176581777562975
2023-12-06 17:37:04.246045,-10.033879654249942,8.324134324160983,-1.1341774918878798,2.8497963468232044
