Timestamp,TP9,AF7,AF8,TP10,AUX
2023-12-11 13:29:34.378691,753.8828125,798.2051391601562,791.7582397460938,791.7582397460938,807.4725341796875
2023-12-11 13:29:34.378691,748.2417602539062,806.6666870117188,792.967041015625,782.087890625,629.3773193359375
2023-12-11 13:29:34.380736,758.3150024414062,791.7582397460938,794.1758422851562,783.6996459960938,518.1685180664062
2023-12-11 13:29:34.381677,762.7472534179688,782.4908447265625,790.5494384765625,778.8644409179688,657.5823974609375
2023-12-11 13:29:34.383684,771.2088012695312,777.2527465820312,790.952392578125,791.3552856445312,882.0146484375
2023-12-11 13:29:34.400671,765.1648559570312,778.8644409179688,792.1611938476562,796.996337890625,838.09521484375
2023-12-11 13:29:34.401671,746.2271118164062,786.923095703125,786.923095703125,777.6557006835938,601.5750732421875
2023-12-11 13:29:34.403091,747.4359130859375,789.3406372070312,789.7435913085938,768.3883056640625,480.29302978515625
2023-12-11 13:29:34.404104,775.6410522460938,792.1611938476562,792.5640869140625,774.029296875,683.3699340820312
2023-12-11 13:29:34.405127,776.0439453125,796.5933837890625,792.967041015625,793.3699340820312,873.1502075195312
2023-12-11 13:29:34.406132,749.8534545898438,798.6080322265625,795.3846435546875,789.7435913085938,765.1648559570312
2023-12-11 13:29:34.406132,739.7802124023438,797.8021850585938,794.5787353515625,762.7472534179688,615.2747192382812
2023-12-11 13:29:34.425980,734.1392211914062,792.967041015625,789.7435913085938,761.1355590820312,862.6740112304688
2023-12-11 13:29:34.426981,755.091552734375,790.5494384765625,789.7435913085938,782.4908447265625,1110.4761962890625
2023-12-11 13:29:34.426981,778.8644409179688,789.3406372070312,792.1611938476562,806.2637329101562,1106.4468994140625
2023-12-11 13:29:34.428148,770.0,784.908447265625,792.967041015625,805.054931640625,1092.7471923828125
2023-12-11 13:29:34.428780,749.4505615234375,784.1025390625,799.010986328125,784.908447265625,907.8021850585938
2023-12-11 13:29:34.429410,747.8388061523438,787.3259887695312,798.6080322265625,773.6264038085938,684.1758422851562
2023-12-11 13:29:34.429410,757.5091552734375,781.2820434570312,791.7582397460938,771.2088012695312,734.945068359375
2023-12-11 13:29:34.430425,758.3150024414062,775.2380981445312,787.7289428710938,785.7142944335938,942.4542236328125
2023-12-11 13:29:34.430425,747.8388061523438,782.4908447265625,783.6996459960938,794.981689453125,1015.3846435546875
2023-12-11 13:29:34.431426,726.4835205078125,784.5054931640625,785.3113403320312,771.2088012695312,698.2783813476562
2023-12-11 13:29:34.432432,726.08056640625,786.923095703125,796.5933837890625,758.3150024414062,492.78387451171875
2023-12-11 13:29:34.432432,741.7948608398438,786.1171875,794.1758422851562,770.0,774.4322509765625
2023-12-11 13:29:34.433453,747.8388061523438,778.8644409179688,787.7289428710938,765.970703125,1037.142822265625
2023-12-11 13:29:34.433453,727.6923217773438,777.2527465820312,790.952392578125,748.2417602539062,888.8644409179688
2023-12-11 13:29:34.434427,698.6813354492188,779.2673950195312,789.3406372070312,726.4835205078125,677.7289428710938
2023-12-11 13:29:34.434427,695.054931640625,778.05859375,798.2051391601562,709.96337890625,571.7582397460938
2023-12-11 13:29:34.435427,692.2344360351562,774.4322509765625,804.6520385742188,707.94873046875,607.6190185546875
2023-12-11 13:29:34.435427,694.2490844726562,774.4322509765625,790.5494384765625,705.5311279296875,765.970703125
2023-12-11 13:29:34.436423,701.5018310546875,774.029296875,786.923095703125,720.4395751953125,940.03662109375
2023-12-11 13:29:34.440427,679.7435913085938,767.5823974609375,805.8607788085938,723.6630249023438,872.3442993164062
2023-12-11 13:29:34.440427,657.9853515625,761.94140625,815.93408203125,676.5201416015625,610.03662109375
2023-12-11 13:29:34.441426,654.7619018554688,761.94140625,814.7252807617188,667.2527465820312,583.4432373046875
2023-12-11 13:29:34.442425,646.3003540039062,759.9267578125,826.8131713867188,681.3552856445312,715.2014770507812
2023-12-11 13:29:34.442425,628.1685180664062,761.5384521484375,825.2014770507812,671.6849975585938,1044.798583984375
2023-12-11 13:29:34.445423,620.915771484375,764.7619018554688,813.5164794921875,655.5677490234375,1023.8461303710938
2023-12-11 13:29:34.446426,630.5860595703125,767.9853515625,816.7399291992188,651.1355590820312,626.5567626953125
2023-12-11 13:29:34.446426,632.1978149414062,766.7765502929688,819.5604248046875,645.8974609375,707.5457763671875
2023-12-11 13:29:34.447426,623.7362670898438,766.3735961914062,827.6190185546875,642.6740112304688,860.2564086914062
2023-12-11 13:29:34.447426,606.00732421875,762.7472534179688,833.2600708007812,656.3735961914062,942.05126953125
2023-12-11 13:29:34.448423,599.5604248046875,760.3296508789062,823.99267578125,656.7765502929688,875.970703125
2023-12-11 13:29:34.448423,602.3809814453125,760.3296508789062,819.96337890625,648.3150024414062,750.6593627929688
2023-12-11 13:29:34.449429,606.8131713867188,760.7326049804688,813.113525390625,640.2564086914062,882.8204956054688
2023-12-11 13:29:34.449429,632.6007080078125,774.4322509765625,804.2490844726562,666.0439453125,875.970703125
2023-12-11 13:29:34.450424,650.3296508789062,778.4615478515625,805.8607788085938,685.7875366210938,806.6666870117188
2023-12-11 13:29:34.450424,637.4359130859375,772.0146484375,812.3076782226562,657.5823974609375,869.5238037109375
2023-12-11 13:29:34.469017,599.5604248046875,766.3735961914062,815.5311279296875,640.6593627929688,647.106201171875
2023-12-11 13:29:34.476014,586.6666870117188,766.3735961914062,804.2490844726562,643.4798583984375,568.1318969726562
2023-12-11 13:29:34.476014,611.2454223632812,770.0,794.981689453125,661.2088012695312,785.3113403320312
2023-12-11 13:29:34.477015,626.5567626953125,769.5970458984375,796.5933837890625,686.996337890625,979.120849609375
2023-12-11 13:29:34.478017,628.974365234375,769.5970458984375,800.6226806640625,689.010986328125,917.069580078125
2023-12-11 13:29:34.478017,620.5128173828125,765.1648559570312,805.054931640625,668.8644409179688,607.2161254882812
2023-12-11 13:29:34.479015,622.12451171875,759.5238037109375,805.4578857421875,657.5823974609375,572.967041015625
2023-12-11 13:29:34.480015,643.8828125,762.7472534179688,799.8168334960938,674.5054931640625,962.1978149414062
2023-12-11 13:29:34.480015,668.05859375,768.7911987304688,795.7875366210938,701.90478515625,1195.091552734375
2023-12-11 13:29:34.481014,647.912109375,761.1355590820312,794.1758422851562,694.6520385742188,943.2600708007812
2023-12-11 13:29:34.485345,618.901123046875,760.7326049804688,790.952392578125,676.923095703125,699.084228515625
2023-12-11 13:29:34.486346,629.7802124023438,775.6410522460938,784.908447265625,675.3113403320312,717.6190185546875
2023-12-11 13:29:34.487348,652.7472534179688,778.8644409179688,785.7142944335938,689.8168334960938,793.7728881835938
2023-12-11 13:29:34.490346,669.2673950195312,775.2380981445312,791.3552856445312,710.3662719726562,706.3369750976562
2023-12-11 13:29:34.491345,660.8058471679688,770.8058471679688,790.952392578125,710.7692260742188,757.912109375
2023-12-11 13:29:34.491345,659.1941528320312,774.8351440429688,790.5494384765625,701.098876953125,788.1318969726562
2023-12-11 13:29:34.492345,687.3992919921875,788.937744140625,783.2966918945312,711.5750732421875,587.069580078125
2023-12-11 13:29:34.492345,690.2197875976562,791.7582397460938,774.029296875,709.96337890625,529.8534545898438
2023-12-11 13:29:34.493347,664.8351440429688,780.0732421875,772.0146484375,707.5457763671875,869.5238037109375
2023-12-11 13:29:34.493347,661.2088012695312,780.0732421875,771.6116943359375,720.8424682617188,1092.3443603515625
2023-12-11 13:29:34.494345,663.6264038085938,781.2820434570312,777.6557006835938,705.5311279296875,792.967041015625
2023-12-11 13:29:34.494345,660.4029541015625,765.1648559570312,787.7289428710938,703.113525390625,586.6666870117188
2023-12-11 13:29:34.495345,683.7728881835938,770.4029541015625,785.3113403320312,734.1392211914062,729.7069702148438
2023-12-11 13:29:34.495345,715.6043701171875,792.967041015625,776.4468994140625,748.6447143554688,919.89013671875
2023-12-11 13:29:34.496345,703.113525390625,799.4139404296875,781.6849975585938,744.2124633789062,894.1025390625
2023-12-11 13:29:34.499345,695.4578857421875,801.8314819335938,779.2673950195312,717.6190185546875,610.8424682617188
2023-12-11 13:29:34.500408,697.87548828125,803.4432373046875,774.4322509765625,703.91943359375,704.7252807617188
2023-12-11 13:29:34.500408,693.8461303710938,797.3992919921875,781.6849975585938,732.5274658203125,977.912109375
2023-12-11 13:29:34.501424,718.4249267578125,798.2051391601562,789.3406372070312,751.8681030273438,850.989013671875
2023-12-11 13:29:34.501424,726.4835205078125,792.1611938476562,791.7582397460938,760.3296508789062,833.6630249023438
2023-12-11 13:29:34.502422,700.6959838867188,790.952392578125,793.3699340820312,758.3150024414062,903.7728881835938
2023-12-11 13:29:34.502422,694.6520385742188,805.8607788085938,794.5787353515625,736.5567626953125,863.076904296875
2023-12-11 13:29:34.503422,705.93408203125,803.8461303710938,790.952392578125,727.2893676757812,725.2747192382812
2023-12-11 13:29:34.503422,726.886474609375,800.2197875976562,788.5347900390625,742.1978149414062,680.5494384765625
2023-12-11 13:29:34.504425,734.1392211914062,805.054931640625,789.3406372070312,770.4029541015625,965.4212646484375
2023-12-11 13:29:34.504425,726.4835205078125,813.113525390625,786.1171875,765.1648559570312,814.3223266601562
2023-12-11 13:29:34.528412,714.7985229492188,807.069580078125,784.5054931640625,742.1978149414062,366.6666564941406
2023-12-11 13:29:34.529411,719.6337280273438,799.010986328125,790.952392578125,750.2564086914062,511.72161865234375
2023-12-11 13:29:34.530411,731.7216186523438,803.040283203125,796.1904907226562,751.8681030273438,838.901123046875
2023-12-11 13:29:34.531409,731.7216186523438,794.1758422851562,799.010986328125,758.7179565429688,832.4542236328125
2023-12-11 13:29:34.532413,714.7985229492188,792.1611938476562,801.025634765625,761.1355590820312,719.6337280273438
2023-12-11 13:29:34.533411,700.6959838867188,807.069580078125,791.7582397460938,757.5091552734375,705.1282348632812
2023-12-11 13:29:34.533411,715.6043701171875,810.2930297851562,785.7142944335938,762.3442993164062,826.4102783203125
2023-12-11 13:29:34.534409,740.5860595703125,799.010986328125,796.996337890625,761.94140625,866.3003540039062
2023-12-11 13:29:34.535408,741.3919677734375,796.1904907226562,803.040283203125,774.4322509765625,793.3699340820312
2023-12-11 13:29:34.536408,725.2747192382812,805.8607788085938,792.967041015625,776.8497924804688,952.5274658203125
2023-12-11 13:29:34.537407,720.03662109375,812.3076782226562,786.5201416015625,748.2417602539062,1042.3809814453125
2023-12-11 13:29:34.537407,734.945068359375,811.5018310546875,780.879150390625,742.6007080078125,776.8497924804688
2023-12-11 13:29:34.538407,763.5531005859375,812.3076782226562,787.3259887695312,791.3552856445312,784.908447265625
2023-12-11 13:29:34.575408,759.120849609375,808.6813354492188,799.4139404296875,799.8168334960938,898.1318969726562
2023-12-11 13:29:34.576407,737.3626098632812,806.2637329101562,795.7875366210938,776.4468994140625,862.6740112304688
2023-12-11 13:29:34.577411,732.12451171875,809.89013671875,788.1318969726562,759.120849609375,681.7582397460938
2023-12-11 13:29:34.577411,741.7948608398438,813.113525390625,783.6996459960938,754.6886596679688,573.7728881835938
2023-12-11 13:29:34.578408,756.3003540039062,808.6813354492188,778.4615478515625,776.8497924804688,658.7911987304688
2023-12-11 13:29:34.579407,759.5238037109375,805.8607788085938,780.0732421875,789.3406372070312,805.4578857421875
2023-12-11 13:29:34.579407,749.4505615234375,798.2051391601562,791.3552856445312,782.087890625,842.930419921875
2023-12-11 13:29:34.580408,734.1392211914062,790.1465454101562,792.1611938476562,771.6116943359375,653.1502075195312
2023-12-11 13:29:34.581406,727.6923217773438,799.010986328125,782.087890625,759.9267578125,732.12451171875
2023-12-11 13:29:34.581406,741.3919677734375,803.8461303710938,778.4615478515625,755.4945068359375,900.5494384765625
2023-12-11 13:29:34.582409,758.7179565429688,789.7435913085938,786.923095703125,779.6703491210938,872.3442993164062
2023-12-11 13:29:34.583407,753.4798583984375,774.8351440429688,795.3846435546875,801.025634765625,911.025634765625
2023-12-11 13:29:34.764839,740.1831665039062,790.1465454101562,787.7289428710938,770.8058471679688,797.3992919921875
2023-12-11 13:29:34.836838,743.003662109375,803.8461303710938,774.4322509765625,732.5274658203125,599.96337890625
2023-12-11 13:29:34.840838,758.7179565429688,793.3699340820312,780.879150390625,745.8241577148438,610.03662109375
2023-12-11 13:29:34.842849,747.8388061523438,781.6849975585938,788.937744140625,779.2673950195312,891.2820434570312
2023-12-11 13:29:34.844842,726.08056640625,778.05859375,782.4908447265625,786.5201416015625,977.106201171875
2023-12-11 13:29:34.856840,716.8131713867188,776.4468994140625,784.1025390625,756.7033081054688,738.974365234375
2023-12-11 13:29:34.874843,723.2600708007812,774.8351440429688,793.3699340820312,754.6886596679688,611.6483764648438
2023-12-11 13:29:34.877843,743.003662109375,780.4761962890625,785.7142944335938,770.8058471679688,720.4395751953125
2023-12-11 13:29:34.878839,748.6447143554688,783.6996459960938,776.4468994140625,770.0,1037.94873046875
2023-12-11 13:29:34.881841,751.8681030273438,798.6080322265625,778.05859375,768.3883056640625,1085.4945068359375
2023-12-11 13:29:34.882839,741.7948608398438,805.8607788085938,784.1025390625,758.3150024414062,693.4432373046875
2023-12-11 13:29:34.883839,738.974365234375,788.937744140625,786.923095703125,754.2857055664062,576.1904907226562
2023-12-11 13:29:34.893838,749.047607421875,795.3846435546875,779.6703491210938,749.8534545898438,769.1941528320312
2023-12-11 13:29:34.894841,764.7619018554688,815.93408203125,770.0,755.091552734375,757.106201171875
2023-12-11 13:29:34.896840,764.3589477539062,816.7399291992188,773.2234497070312,763.1502075195312,805.054931640625
2023-12-11 13:29:34.896840,740.989013671875,811.098876953125,778.4615478515625,765.1648559570312,813.5164794921875
2023-12-11 13:29:34.898839,740.989013671875,804.6520385742188,783.6996459960938,769.1941528320312,722.05126953125
2023-12-11 13:29:34.899839,748.6447143554688,802.2344360351562,784.908447265625,769.1941528320312,685.3846435546875
2023-12-11 13:29:34.900839,759.5238037109375,805.054931640625,774.4322509765625,768.3883056640625,737.7655639648438
2023-12-11 13:29:34.901841,778.8644409179688,807.4725341796875,772.4176025390625,790.1465454101562,1075.4212646484375
2023-12-11 13:29:34.902839,755.4945068359375,803.040283203125,773.2234497070312,792.5640869140625,1016.1904907226562
2023-12-11 13:29:34.903840,728.4981689453125,795.7875366210938,776.8497924804688,765.970703125,530.6593627929688
2023-12-11 13:29:34.905839,733.7362670898438,791.7582397460938,790.1465454101562,770.0,526.6300659179688
2023-12-11 13:29:34.906845,749.047607421875,790.1465454101562,786.923095703125,790.952392578125,730.5128173828125
2023-12-11 13:29:34.915838,760.3296508789062,796.996337890625,772.0146484375,794.981689453125,963.003662109375
2023-12-11 13:29:34.917845,754.6886596679688,797.3992919921875,770.4029541015625,785.7142944335938,951.7216186523438
2023-12-11 13:29:34.918839,745.8241577148438,788.5347900390625,775.2380981445312,769.5970458984375,796.1904907226562
2023-12-11 13:29:34.928842,749.047607421875,778.05859375,784.1025390625,766.7765502929688,798.6080322265625
2023-12-11 13:29:34.929839,757.912109375,769.5970458984375,788.937744140625,794.1758422851562,844.1392211914062
2023-12-11 13:29:34.930838,776.0439453125,776.4468994140625,780.0732421875,810.6959838867188,1014.1758422851562
2023-12-11 13:29:34.930838,782.893798828125,786.5201416015625,780.0732421875,798.6080322265625,953.3333129882812
2023-12-11 13:29:34.931845,749.4505615234375,784.5054931640625,784.1025390625,774.8351440429688,973.8828125
2023-12-11 13:29:34.932843,732.930419921875,786.923095703125,771.2088012695312,753.4798583984375,817.1428833007812
2023-12-11 13:29:34.933841,753.8828125,787.3259887695312,775.6410522460938,775.2380981445312,652.3442993164062
2023-12-11 13:29:34.934839,757.5091552734375,778.8644409179688,786.1171875,797.8021850585938,872.3442993164062
2023-12-11 13:29:34.935841,746.2271118164062,775.6410522460938,779.2673950195312,801.8314819335938,909.010986328125
2023-12-11 13:29:34.936838,743.4066162109375,773.6264038085938,780.879150390625,774.029296875,623.7362670898438
2023-12-11 13:29:34.937838,747.4359130859375,771.6116943359375,790.952392578125,755.4945068359375,620.915771484375
2023-12-11 13:29:34.937838,761.1355590820312,775.2380981445312,791.7582397460938,778.05859375,947.6923217773438
2023-12-11 13:29:34.937838,763.1502075195312,776.0439453125,781.6849975585938,791.7582397460938,1030.2930908203125
2023-12-11 13:29:34.938838,763.9560546875,777.2527465820312,776.0439453125,788.5347900390625,882.0146484375
2023-12-11 13:29:34.938838,759.9267578125,774.4322509765625,781.2820434570312,772.8204956054688,679.3406372070312
2023-12-11 13:29:34.939837,760.7326049804688,769.1941528320312,784.1025390625,774.8351440429688,791.3552856445312
2023-12-11 13:29:34.939837,769.1941528320312,768.3883056640625,784.908447265625,784.5054931640625,1068.974365234375
2023-12-11 13:29:34.939837,759.9267578125,762.7472534179688,790.1465454101562,801.8314819335938,961.7948608398438
2023-12-11 13:29:34.940836,752.6740112304688,761.1355590820312,786.923095703125,813.113525390625,830.4395751953125
2023-12-11 13:29:34.940836,746.2271118164062,761.94140625,784.5054931640625,796.996337890625,776.8497924804688
2023-12-11 13:29:34.941838,746.6300659179688,761.94140625,787.7289428710938,786.1171875,623.7362670898438
2023-12-11 13:29:34.945837,746.2271118164062,757.5091552734375,788.1318969726562,789.7435913085938,668.05859375
2023-12-11 13:29:34.945837,755.8974609375,756.7033081054688,789.7435913085938,806.2637329101562,893.2966918945312
2023-12-11 13:29:34.946837,761.1355590820312,765.5677490234375,781.6849975585938,802.6373901367188,879.5970458984375
2023-12-11 13:29:34.946837,750.6593627929688,766.7765502929688,781.2820434570312,778.4615478515625,686.5933837890625
2023-12-11 13:29:34.946837,733.7362670898438,759.5238037109375,792.1611938476562,779.6703491210938,516.1538696289062
2023-12-11 13:29:34.950837,743.8095092773438,749.8534545898438,796.996337890625,796.1904907226562,686.996337890625
2023-12-11 13:29:34.950837,780.0732421875,760.7326049804688,789.3406372070312,805.4578857421875,1050.4395751953125
2023-12-11 13:29:34.951837,774.029296875,774.8351440429688,777.2527465820312,797.3992919921875,991.2088012695312
2023-12-11 13:29:34.951837,755.8974609375,770.4029541015625,772.8204956054688,774.4322509765625,684.981689453125
2023-12-11 13:29:34.952837,763.1502075195312,767.5823974609375,771.6116943359375,774.4322509765625,726.4835205078125
2023-12-11 13:29:34.952837,760.3296508789062,761.94140625,778.4615478515625,788.937744140625,960.1831665039062
2023-12-11 13:29:34.953837,750.6593627929688,755.8974609375,784.5054931640625,786.923095703125,815.5311279296875
2023-12-11 13:29:34.956838,756.3003540039062,762.3442993164062,780.879150390625,784.908447265625,804.6520385742188
2023-12-11 13:29:34.956838,759.9267578125,769.1941528320312,770.0,772.4176025390625,752.6740112304688
2023-12-11 13:29:34.958837,759.9267578125,766.7765502929688,774.029296875,760.7326049804688,505.6776428222656
2023-12-11 13:29:34.958837,756.7033081054688,759.9267578125,780.0732421875,757.106201171875,472.6373596191406
2023-12-11 13:29:34.959837,757.5091552734375,756.7033081054688,776.4468994140625,758.7179565429688,642.6740112304688
2023-12-11 13:29:34.960839,762.7472534179688,755.8974609375,779.2673950195312,778.05859375,992.0146484375
2023-12-11 13:29:34.960839,762.3442993164062,761.5384521484375,777.6557006835938,779.2673950195312,881.2088012695312
2023-12-11 13:29:34.961837,764.7619018554688,763.5531005859375,784.1025390625,776.8497924804688,473.4432373046875
2023-12-11 13:29:34.961837,757.106201171875,760.3296508789062,779.6703491210938,765.970703125,469.8168640136719
2023-12-11 13:29:34.962837,756.7033081054688,756.7033081054688,776.0439453125,769.1941528320312,982.3442993164062
2023-12-11 13:29:34.962837,759.5238037109375,753.8828125,784.5054931640625,781.6849975585938,1228.937744140625
2023-12-11 13:29:34.963838,735.3479614257812,744.6153564453125,791.3552856445312,769.1941528320312,786.1171875
2023-12-11 13:29:34.966837,730.915771484375,742.1978149414062,797.3992919921875,771.2088012695312,596.3369750976562
2023-12-11 13:29:34.967837,747.032958984375,757.912109375,788.1318969726562,759.9267578125,587.87548828125
2023-12-11 13:29:34.967837,752.6740112304688,760.3296508789062,782.4908447265625,763.1502075195312,724.4688720703125
2023-12-11 13:29:34.967837,765.1648559570312,757.5091552734375,782.893798828125,795.7875366210938,804.2490844726562
2023-12-11 13:29:34.968838,780.0732421875,764.7619018554688,778.8644409179688,800.6226806640625,888.05859375
2023-12-11 13:29:34.968838,790.5494384765625,770.4029541015625,778.8644409179688,790.1465454101562,931.5750732421875
2023-12-11 13:29:34.969838,777.2527465820312,765.970703125,786.5201416015625,789.7435913085938,720.8424682617188
2023-12-11 13:29:34.972837,761.94140625,761.5384521484375,790.1465454101562,792.5640869140625,785.7142944335938
2023-12-11 13:29:34.973837,770.8058471679688,763.1502075195312,783.2966918945312,792.5640869140625,1042.783935546875
2023-12-11 13:29:34.973837,765.5677490234375,763.9560546875,781.2820434570312,795.7875366210938,1107.2528076171875
2023-12-11 13:29:34.974838,742.6007080078125,761.1355590820312,776.4468994140625,780.879150390625,749.8534545898438
2023-12-11 13:29:34.974838,752.6740112304688,759.5238037109375,769.5970458984375,765.5677490234375,557.2527465820312
2023-12-11 13:29:34.978837,776.4468994140625,765.970703125,769.5970458984375,782.893798828125,863.8828125
2023-12-11 13:29:34.979837,788.5347900390625,770.0,776.0439453125,817.1428833007812,1039.96337890625
2023-12-11 13:29:34.979837,764.7619018554688,767.1795043945312,787.3259887695312,816.3369750976562,917.4725341796875
2023-12-11 13:29:34.980837,733.7362670898438,762.3442993164062,787.3259887695312,783.2966918945312,727.6923217773438
2023-12-11 13:29:34.980837,734.945068359375,757.106201171875,787.7289428710938,763.9560546875,546.7765502929688
2023-12-11 13:29:34.980837,769.1941528320312,757.912109375,788.1318969726562,753.8828125,673.6996459960938
2023-12-11 13:29:34.981837,778.4615478515625,763.1502075195312,780.4761962890625,771.2088012695312,914.6520385742188
2023-12-11 13:29:34.981837,743.8095092773438,759.5238037109375,779.6703491210938,786.5201416015625,983.1502075195312
2023-12-11 13:29:34.982837,733.3333129882812,756.3003540039062,785.3113403320312,773.2234497070312,843.3333129882812
2023-12-11 13:29:34.982837,736.1538696289062,759.9267578125,780.4761962890625,763.5531005859375,561.2820434570312
2023-12-11 13:29:34.983839,750.2564086914062,763.1502075195312,775.2380981445312,762.3442993164062,595.5311279296875
2023-12-11 13:29:34.983839,763.9560546875,763.1502075195312,782.893798828125,781.2820434570312,846.1538696289062
2023-12-11 13:29:35.033851,753.4798583984375,762.3442993164062,785.3113403320312,795.7875366210938,1051.245361328125
2023-12-11 13:29:35.034844,755.091552734375,762.7472534179688,779.2673950195312,777.2527465820312,906.5933837890625
2023-12-11 13:29:35.036846,760.7326049804688,763.9560546875,774.8351440429688,758.7179565429688,595.93408203125
2023-12-11 13:29:35.045847,752.2710571289062,761.5384521484375,779.6703491210938,758.7179565429688,644.6886596679688
2023-12-11 13:29:35.048844,761.94140625,759.9267578125,787.3259887695312,780.879150390625,819.1575317382812
2023-12-11 13:29:35.049844,776.4468994140625,766.7765502929688,784.1025390625,784.908447265625,958.974365234375
2023-12-11 13:29:35.051846,763.5531005859375,776.0439453125,779.2673950195312,782.4908447265625,845.7509155273438
2023-12-11 13:29:35.052845,750.6593627929688,776.4468994140625,774.4322509765625,762.7472534179688,692.2344360351562
2023-12-11 13:29:35.053842,765.970703125,774.8351440429688,783.2966918945312,758.7179565429688,721.2454223632812
2023-12-11 13:29:35.129878,765.970703125,784.5054931640625,792.1611938476562,806.2637329101562,995.6410522460938
2023-12-11 13:29:35.130843,766.7765502929688,780.0732421875,799.8168334960938,822.3809814453125,918.6813354492188
2023-12-11 13:29:35.131838,755.4945068359375,784.1025390625,801.4285888671875,809.4871826171875,1014.1758422851562
2023-12-11 13:29:35.131838,756.7033081054688,789.3406372070312,799.010986328125,797.8021850585938,849.3773193359375
2023-12-11 13:29:35.132837,766.3735961914062,792.967041015625,799.010986328125,795.3846435546875,711.1721801757812
2023-12-11 13:29:35.132837,779.6703491210938,794.5787353515625,799.010986328125,796.1904907226562,712.7838745117188
2023-12-11 13:29:35.133839,787.3259887695312,788.5347900390625,798.2051391601562,805.054931640625,870.7326049804688
2023-12-11 13:29:35.133839,771.6116943359375,789.7435913085938,796.1904907226562,827.2161254882812,1217.6556396484375
2023-12-11 13:29:35.134840,745.4212646484375,789.3406372070312,796.1904907226562,801.4285888671875,1023.040283203125
2023-12-11 13:29:35.134840,733.3333129882812,780.0732421875,799.010986328125,759.9267578125,601.1721801757812
2023-12-11 13:29:35.135837,755.091552734375,773.6264038085938,799.010986328125,782.893798828125,692.6373901367188
2023-12-11 13:29:35.139837,779.2673950195312,780.4761962890625,800.2197875976562,817.1428833007812,956.5567626953125
2023-12-11 13:29:35.146851,780.879150390625,782.4908447265625,803.8461303710938,805.8607788085938,833.2600708007812
2023-12-11 13:29:35.147866,767.9853515625,783.2966918945312,801.025634765625,776.0439453125,583.040283203125
2023-12-11 13:29:35.148840,751.062255859375,789.3406372070312,792.967041015625,763.1502075195312,594.7252807617188
2023-12-11 13:29:35.148840,753.076904296875,788.937744140625,797.8021850585938,786.923095703125,662.0146484375
2023-12-11 13:29:35.149838,769.1941528320312,788.937744140625,804.6520385742188,825.2014770507812,815.93408203125
2023-12-11 13:29:35.149838,778.05859375,791.7582397460938,801.8314819335938,830.4395751953125,948.901123046875
2023-12-11 13:29:35.150838,767.5823974609375,792.5640869140625,802.6373901367188,813.113525390625,1027.069580078125
2023-12-11 13:29:35.150838,749.4505615234375,787.3259887695312,799.010986328125,786.1171875,856.6300659179688
2023-12-11 13:29:35.151839,762.7472534179688,786.923095703125,794.981689453125,775.6410522460938,623.7362670898438
2023-12-11 13:29:35.152837,784.5054931640625,787.3259887695312,796.5933837890625,802.2344360351562,896.1171875
2023-12-11 13:29:35.152837,780.4761962890625,789.7435913085938,795.3846435546875,817.94873046875,1083.076904296875
2023-12-11 13:29:35.153840,768.3883056640625,796.1904907226562,790.952392578125,800.2197875976562,818.7545776367188
2023-12-11 13:29:35.173845,747.4359130859375,790.952392578125,790.1465454101562,778.05859375,519.7802124023438
2023-12-11 13:29:35.174847,751.4652099609375,785.7142944335938,796.1904907226562,784.1025390625,567.7289428710938
2023-12-11 13:29:35.178849,769.1941528320312,792.1611938476562,798.2051391601562,801.8314819335938,888.8644409179688
2023-12-11 13:29:35.179849,765.5677490234375,795.3846435546875,795.7875366210938,805.4578857421875,971.4652099609375
2023-12-11 13:29:35.181850,757.5091552734375,794.1758422851562,796.1904907226562,801.8314819335938,745.018310546875
2023-12-11 13:29:35.182844,767.5823974609375,796.5933837890625,798.2051391601562,780.879150390625,705.1282348632812
2023-12-11 13:29:35.184846,773.6264038085938,797.8021850585938,794.5787353515625,777.6557006835938,829.2307739257812
2023-12-11 13:29:35.187852,767.9853515625,794.5787353515625,789.3406372070312,799.8168334960938,803.4432373046875
2023-12-11 13:29:35.189849,763.1502075195312,789.7435913085938,791.3552856445312,811.90478515625,873.1502075195312
2023-12-11 13:29:35.191845,756.7033081054688,790.1465454101562,795.3846435546875,794.981689453125,873.9560546875
2023-12-11 13:29:35.194846,751.4652099609375,790.1465454101562,797.3992919921875,778.8644409179688,717.2161254882812
2023-12-11 13:29:35.195844,753.8828125,785.3113403320312,793.3699340820312,781.2820434570312,561.6849975585938
2023-12-11 13:29:35.205842,769.1941528320312,782.4908447265625,791.7582397460938,793.3699340820312,640.2564086914062
2023-12-11 13:29:35.225844,788.5347900390625,783.6996459960938,791.7582397460938,810.6959838867188,1016.1904907226562
2023-12-11 13:29:35.226844,772.4176025390625,786.1171875,790.1465454101562,807.069580078125,1138.6812744140625
2023-12-11 13:29:35.227842,734.945068359375,786.1171875,792.967041015625,779.6703491210938,682.5640869140625
2023-12-11 13:29:35.228840,743.4066162109375,783.6996459960938,792.1611938476562,772.8204956054688,591.098876953125
2023-12-11 13:29:35.229841,772.4176025390625,783.6996459960938,793.3699340820312,796.1904907226562,996.0439453125
2023-12-11 13:29:35.230844,773.2234497070312,780.4761962890625,788.5347900390625,807.069580078125,1157.216064453125
2023-12-11 13:29:35.231840,770.0,781.2820434570312,786.1171875,803.8461303710938,857.4359130859375
2023-12-11 13:29:35.232840,759.120849609375,782.4908447265625,788.1318969726562,786.1171875,512.12451171875
2023-12-11 13:29:35.233840,754.6886596679688,779.2673950195312,788.937744140625,771.2088012695312,632.1978149414062
2023-12-11 13:29:35.234845,768.3883056640625,782.4908447265625,789.7435913085938,783.2966918945312,794.981689453125
2023-12-11 13:29:35.235841,769.5970458984375,787.7289428710938,786.1171875,801.4285888671875,780.4761962890625
2023-12-11 13:29:35.270854,773.2234497070312,791.7582397460938,780.879150390625,809.89013671875,856.6300659179688
2023-12-11 13:29:35.272854,770.8058471679688,791.3552856445312,778.05859375,794.5787353515625,788.937744140625
2023-12-11 13:29:35.274854,762.3442993164062,790.1465454101562,783.2966918945312,775.6410522460938,659.1941528320312
2023-12-11 13:29:35.275849,778.4615478515625,787.7289428710938,792.1611938476562,788.937744140625,677.7289428710938
2023-12-11 13:29:35.277846,796.5933837890625,789.7435913085938,795.3846435546875,804.2490844726562,934.3956298828125
2023-12-11 13:29:35.279854,794.981689453125,790.1465454101562,793.3699340820312,812.7106323242188,1176.5567626953125
2023-12-11 13:29:35.281853,803.8461303710938,784.5054931640625,791.7582397460938,805.8607788085938,1011.3552856445312
2023-12-11 13:29:35.282849,772.4176025390625,784.5054931640625,789.7435913085938,791.3552856445312,676.5201416015625
2023-12-11 13:29:35.285217,756.7033081054688,784.908447265625,788.1318969726562,803.4432373046875,727.6923217773438
2023-12-11 13:29:35.287271,782.4908447265625,785.7142944335938,787.3259887695312,811.90478515625,1019.010986328125
2023-12-11 13:29:35.289266,777.2527465820312,791.3552856445312,782.4908447265625,793.3699340820312,912.2344360351562
2023-12-11 13:29:35.292266,767.1795043945312,791.7582397460938,784.5054931640625,777.6557006835938,704.3223266601562
2023-12-11 13:29:35.303827,760.3296508789062,787.3259887695312,791.3552856445312,772.0146484375,790.952392578125
2023-12-11 13:29:35.304826,759.9267578125,788.937744140625,787.7289428710938,777.6557006835938,791.7582397460938
2023-12-11 13:29:35.305825,777.6557006835938,788.1318969726562,782.087890625,792.967041015625,670.0732421875
2023-12-11 13:29:35.322452,782.893798828125,783.6996459960938,783.2966918945312,803.4432373046875,813.91943359375
2023-12-11 13:29:35.322452,758.7179565429688,783.2966918945312,786.5201416015625,781.2820434570312,726.886474609375
2023-12-11 13:29:35.323450,745.4212646484375,783.6996459960938,785.7142944335938,752.6740112304688,540.7326049804688
2023-12-11 13:29:35.324450,755.8974609375,782.4908447265625,781.2820434570312,759.120849609375,671.6849975585938
2023-12-11 13:29:35.325452,767.5823974609375,787.3259887695312,781.2820434570312,781.2820434570312,875.970703125
2023-12-11 13:29:35.325452,765.1648559570312,787.3259887695312,786.923095703125,794.5787353515625,1106.0439453125
2023-12-11 13:29:35.326451,761.1355590820312,782.4908447265625,784.1025390625,782.893798828125,1057.2894287109375
2023-12-11 13:29:35.327452,763.5531005859375,783.2966918945312,780.0732421875,772.8204956054688,654.3589477539062
2023-12-11 13:29:35.328483,754.6886596679688,781.6849975585938,785.7142944335938,772.4176025390625,722.05126953125
2023-12-11 13:29:35.334301,767.5823974609375,780.4761962890625,792.1611938476562,778.4615478515625,903.7728881835938
2023-12-11 13:29:35.335079,783.2966918945312,775.6410522460938,796.996337890625,795.3846435546875,787.3259887695312
2023-12-11 13:29:35.336099,776.8497924804688,773.2234497070312,801.4285888671875,798.2051391601562,736.5567626953125
2023-12-11 13:29:35.337098,753.8828125,781.2820434570312,794.1758422851562,774.4322509765625,641.4652099609375
2023-12-11 13:29:35.337098,746.6300659179688,786.923095703125,782.087890625,770.8058471679688,622.930419921875
2023-12-11 13:29:35.338096,767.1795043945312,777.6557006835938,790.5494384765625,804.2490844726562,811.5018310546875
2023-12-11 13:29:35.339094,777.2527465820312,773.6264038085938,798.2051391601562,822.3809814453125,972.2710571289062
2023-12-11 13:29:35.339094,784.1025390625,786.923095703125,790.5494384765625,814.3223266601562,930.3662719726562
2023-12-11 13:29:35.340097,790.5494384765625,797.8021850585938,784.5054931640625,800.6226806640625,823.1868286132812
2023-12-11 13:29:35.341113,784.908447265625,793.3699340820312,790.952392578125,786.923095703125,668.8644409179688
2023-12-11 13:29:35.342098,772.0146484375,786.5201416015625,793.7728881835938,796.5933837890625,698.2783813476562
2023-12-11 13:29:35.342098,776.0439453125,783.2966918945312,784.5054931640625,820.7692260742188,981.1355590820312
2023-12-11 13:29:36.396619,770.4029541015625,780.4761962890625,783.2966918945312,815.1282348632812,1004.5054931640625
2023-12-11 13:29:36.403625,755.8974609375,781.6849975585938,786.1171875,794.981689453125,611.6483764648438
2023-12-11 13:29:36.409618,754.2857055664062,783.6996459960938,778.8644409179688,773.2234497070312,529.8534545898438
2023-12-11 13:29:36.411623,771.2088012695312,781.6849975585938,778.4615478515625,770.8058471679688,750.6593627929688
2023-12-11 13:29:36.413622,778.05859375,777.2527465820312,781.6849975585938,793.7728881835938,944.06591796875
2023-12-11 13:29:36.434619,764.7619018554688,780.4761962890625,788.937744140625,799.4139404296875,962.6007080078125
2023-12-11 13:29:36.439623,765.970703125,785.7142944335938,791.3552856445312,790.952392578125,848.1685180664062
2023-12-11 13:29:36.443621,761.1355590820312,787.7289428710938,778.8644409179688,770.0,917.069580078125
2023-12-11 13:29:36.444622,757.5091552734375,788.5347900390625,770.8058471679688,776.0439453125,1000.879150390625
2023-12-11 13:29:36.445623,763.5531005859375,782.893798828125,770.0,799.010986328125,889.2673950195312
2023-12-11 13:29:36.446623,746.2271118164062,777.2527465820312,772.0146484375,803.4432373046875,824.7985229492188
2023-12-11 13:29:36.448622,731.7216186523438,774.029296875,776.8497924804688,787.7289428710938,704.3223266601562
2023-12-11 13:29:36.463619,730.5128173828125,776.4468994140625,771.6116943359375,765.970703125,644.2857055664062
2023-12-11 13:29:36.465620,749.4505615234375,776.8497924804688,763.1502075195312,768.7911987304688,658.3883056640625
2023-12-11 13:29:36.466616,778.05859375,775.2380981445312,767.1795043945312,799.4139404296875,830.8424682617188
2023-12-11 13:29:36.478621,762.7472534179688,774.8351440429688,774.4322509765625,798.2051391601562,961.7948608398438
2023-12-11 13:29:36.596615,751.062255859375,778.8644409179688,774.029296875,781.2820434570312,672.087890625
2023-12-11 13:29:36.613619,755.8974609375,787.3259887695312,759.9267578125,766.3735961914062,510.5128173828125
2023-12-11 13:29:36.627616,767.1795043945312,790.5494384765625,752.2710571289062,762.3442993164062,736.5567626953125
2023-12-11 13:29:36.641668,795.3846435546875,781.2820434570312,758.7179565429688,782.893798828125,1145.93408203125
2023-12-11 13:29:36.668620,781.2820434570312,774.8351440429688,759.5238037109375,784.1025390625,1112.087890625
2023-12-11 13:29:36.680624,747.4359130859375,778.4615478515625,758.3150024414062,768.3883056640625,720.4395751953125
2023-12-11 13:29:36.685616,743.8095092773438,779.2673950195312,761.1355590820312,759.120849609375,662.0146484375
2023-12-11 13:29:36.700616,755.4945068359375,778.05859375,760.7326049804688,768.7911987304688,743.4066162109375
2023-12-11 13:29:36.704622,771.2088012695312,781.6849975585938,761.5384521484375,787.7289428710938,842.930419921875
2023-12-11 13:29:36.713620,771.6116943359375,785.3113403320312,766.3735961914062,799.8168334960938,972.6740112304688
2023-12-11 13:29:36.722615,761.5384521484375,782.087890625,762.7472534179688,784.1025390625,952.5274658203125
2023-12-11 13:29:36.737622,755.8974609375,781.6849975585938,761.94140625,768.3883056640625,653.9560546875
2023-12-11 13:29:36.745621,757.912109375,782.087890625,771.2088012695312,772.8204956054688,537.912109375
2023-12-11 13:29:36.751621,776.0439453125,779.2673950195312,771.2088012695312,787.7289428710938,788.1318969726562
2023-12-11 13:29:36.756616,778.4615478515625,783.2966918945312,755.4945068359375,785.3113403320312,1138.6812744140625
2023-12-11 13:29:36.781622,755.091552734375,785.7142944335938,745.018310546875,761.94140625,1083.076904296875
2023-12-11 13:29:36.783617,741.3919677734375,782.4908447265625,749.047607421875,761.1355590820312,671.6849975585938
2023-12-11 13:29:36.785618,739.3773193359375,780.4761962890625,759.5238037109375,761.94140625,566.923095703125
2023-12-11 13:29:36.796619,761.1355590820312,778.05859375,767.1795043945312,772.8204956054688,861.062255859375
2023-12-11 13:29:36.822617,783.6996459960938,773.2234497070312,771.6116943359375,811.098876953125,993.2234497070312
2023-12-11 13:29:36.851617,770.4029541015625,776.0439453125,766.3735961914062,796.1904907226562,743.8095092773438
2023-12-11 13:29:36.859652,748.2417602539062,782.4908447265625,759.9267578125,758.3150024414062,505.6776428222656
2023-12-11 13:29:36.867620,749.4505615234375,781.2820434570312,761.1355590820312,755.8974609375,499.23077392578125
2023-12-11 13:29:36.884619,763.9560546875,784.1025390625,760.3296508789062,777.2527465820312,643.076904296875
2023-12-11 13:29:36.890616,769.1941528320312,787.3259887695312,760.7326049804688,799.8168334960938,865.091552734375
2023-12-11 13:29:36.899614,765.970703125,790.1465454101562,759.5238037109375,794.1758422851562,942.8571166992188
2023-12-11 13:29:36.912620,757.912109375,790.952392578125,758.3150024414062,775.6410522460938,760.3296508789062
2023-12-11 13:29:36.922616,768.3883056640625,790.1465454101562,763.1502075195312,775.6410522460938,650.7326049804688
2023-12-11 13:29:36.931621,796.5933837890625,792.1611938476562,763.9560546875,788.5347900390625,753.076904296875
2023-12-11 13:29:36.945627,793.7728881835938,792.1611938476562,761.5384521484375,802.2344360351562,914.2490844726562
2023-12-11 13:29:36.950617,780.0732421875,792.967041015625,766.3735961914062,807.87548828125,1137.069580078125
2023-12-11 13:29:36.954622,769.5970458984375,791.7582397460938,767.1795043945312,793.3699340820312,796.1904907226562
2023-12-11 13:29:36.985618,754.2857055664062,792.5640869140625,767.5823974609375,781.2820434570312,482.71063232421875
2023-12-11 13:29:36.995623,766.7765502929688,794.1758422851562,771.6116943359375,786.923095703125,696.6666870117188
2023-12-11 13:29:37.000618,782.4908447265625,790.952392578125,776.0439453125,792.967041015625,959.7802124023438
2023-12-11 13:29:37.009618,783.2966918945312,790.1465454101562,775.2380981445312,788.937744140625,884.8351440429688
2023-12-11 13:29:37.016617,764.3589477539062,787.3259887695312,766.7765502929688,774.029296875,578.6080322265625
2023-12-11 13:29:37.021616,757.106201171875,786.1171875,768.3883056640625,762.3442993164062,597.5457763671875
2023-12-11 13:29:37.030612,759.120849609375,785.3113403320312,768.7911987304688,770.0,737.7655639648438
2023-12-11 13:29:37.045617,764.7619018554688,782.087890625,768.7911987304688,782.087890625,797.3992919921875
2023-12-11 13:29:37.052622,760.3296508789062,782.087890625,774.8351440429688,788.1318969726562,902.967041015625
2023-12-11 13:29:37.085616,746.2271118164062,777.2527465820312,774.4322509765625,780.0732421875,971.8681030273438
2023-12-11 13:29:37.092653,745.018310546875,774.8351440429688,774.8351440429688,767.9853515625,908.6080322265625
2023-12-11 13:29:37.105615,760.3296508789062,777.2527465820312,777.2527465820312,776.4468994140625,646.3003540039062
2023-12-11 13:29:37.133618,775.6410522460938,775.6410522460938,773.6264038085938,791.7582397460938,748.2417602539062
2023-12-11 13:29:37.137621,773.6264038085938,775.6410522460938,778.4615478515625,794.5787353515625,894.5054931640625
2023-12-11 13:29:37.152616,776.8497924804688,776.0439453125,776.8497924804688,791.7582397460938,700.2930297851562
2023-12-11 13:29:37.156614,775.6410522460938,774.029296875,775.6410522460938,782.893798828125,489.96337890625
2023-12-11 13:29:37.171615,767.9853515625,774.029296875,774.4322509765625,777.6557006835938,684.981689453125
2023-12-11 13:29:37.181619,761.1355590820312,774.029296875,767.1795043945312,800.6226806640625,1058.901123046875
2023-12-11 13:29:37.195623,753.8828125,774.8351440429688,767.5823974609375,803.4432373046875,1052.857177734375
2023-12-11 13:29:37.200617,746.2271118164062,774.029296875,769.5970458984375,774.4322509765625,750.2564086914062
2023-12-11 13:29:37.211620,745.018310546875,773.6264038085938,776.0439453125,772.8204956054688,618.09521484375
2023-12-11 13:29:37.215618,763.5531005859375,768.3883056640625,774.4322509765625,780.879150390625,877.9853515625
2023-12-11 13:29:37.222615,785.3113403320312,764.7619018554688,768.7911987304688,796.1904907226562,968.2417602539062
2023-12-11 13:29:37.233618,790.5494384765625,770.8058471679688,767.9853515625,811.5018310546875,908.6080322265625
2023-12-11 13:29:37.264621,769.1941528320312,776.4468994140625,769.1941528320312,794.1758422851562,849.7802124023438
2023-12-11 13:29:37.266617,761.5384521484375,774.4322509765625,776.4468994140625,773.2234497070312,744.6153564453125
2023-12-11 13:29:37.272616,776.4468994140625,771.2088012695312,778.4615478515625,787.7289428710938,529.8534545898438
2023-12-11 13:29:37.279620,774.4322509765625,774.4322509765625,776.4468994140625,806.6666870117188,647.912109375
2023-12-11 13:29:37.294636,768.3883056640625,776.0439453125,773.6264038085938,807.4725341796875,911.8314819335938
2023-12-11 13:29:37.313622,753.8828125,776.4468994140625,772.4176025390625,792.1611938476562,889.6703491210938
2023-12-11 13:29:37.326619,738.974365234375,777.6557006835938,772.0146484375,771.2088012695312,789.3406372070312
2023-12-11 13:29:37.331623,749.4505615234375,776.8497924804688,773.6264038085938,774.8351440429688,680.5494384765625
2023-12-11 13:29:37.347622,768.3883056640625,775.6410522460938,773.2234497070312,790.952392578125,773.2234497070312
2023-12-11 13:29:37.358619,784.908447265625,774.029296875,773.6264038085938,799.8168334960938,929.96337890625
2023-12-11 13:29:37.370619,772.8204956054688,778.05859375,771.6116943359375,805.8607788085938,803.4432373046875
2023-12-11 13:29:37.395622,740.1831665039062,776.0439453125,770.8058471679688,788.5347900390625,610.4395751953125
2023-12-11 13:29:37.405617,739.3773193359375,776.0439453125,772.4176025390625,778.8644409179688,822.7838745117188
2023-12-11 13:29:37.412622,764.7619018554688,779.2673950195312,765.5677490234375,803.8461303710938,1044.3956298828125
2023-12-11 13:29:37.418613,784.1025390625,779.2673950195312,767.9853515625,816.7399291992188,981.94140625
2023-12-11 13:29:37.429616,776.8497924804688,778.8644409179688,774.8351440429688,812.3076782226562,890.4761962890625
2023-12-11 13:29:37.436618,753.8828125,777.2527465820312,769.5970458984375,792.967041015625,801.8314819335938
2023-12-11 13:29:37.449619,755.4945068359375,776.0439453125,763.5531005859375,783.2966918945312,701.90478515625
2023-12-11 13:29:37.455619,772.4176025390625,780.0732421875,767.9853515625,801.4285888671875,746.2271118164062
2023-12-11 13:29:37.467621,787.7289428710938,780.4761962890625,773.2234497070312,810.6959838867188,1008.1318969726562
2023-12-11 13:29:37.478643,794.981689453125,782.087890625,778.05859375,813.91943359375,962.1978149414062
2023-12-11 13:29:37.488618,769.1941528320312,779.6703491210938,780.4761962890625,798.2051391601562,691.025634765625
2023-12-11 13:29:37.502619,757.106201171875,775.6410522460938,778.05859375,775.6410522460938,576.1904907226562
2023-12-11 13:29:37.505621,760.7326049804688,772.8204956054688,775.2380981445312,786.923095703125,852.6007080078125
2023-12-11 13:29:37.519618,766.7765502929688,770.0,771.2088012695312,805.8607788085938,1166.4835205078125
2023-12-11 13:29:37.534617,773.2234497070312,774.029296875,775.6410522460938,800.2197875976562,872.7472534179688
2023-12-11 13:29:37.547619,761.94140625,776.4468994140625,781.2820434570312,782.4908447265625,603.5897216796875
2023-12-11 13:29:37.557674,753.076904296875,776.0439453125,776.8497924804688,778.4615478515625,511.3186950683594
2023-12-11 13:29:37.562620,770.4029541015625,773.2234497070312,773.6264038085938,793.3699340820312,586.2637329101562
2023-12-11 13:29:37.580615,794.1758422851562,773.6264038085938,779.6703491210938,807.87548828125,785.7142944335938
2023-12-11 13:29:37.585618,780.879150390625,776.0439453125,786.5201416015625,809.89013671875,843.3333129882812
2023-12-11 13:29:37.599623,753.8828125,779.6703491210938,777.6557006835938,807.069580078125,767.5823974609375
2023-12-11 13:29:37.610623,757.5091552734375,782.893798828125,772.4176025390625,788.5347900390625,557.2527465820312
2023-12-11 13:29:37.616616,770.4029541015625,776.4468994140625,781.2820434570312,777.6557006835938,673.6996459960938
2023-12-11 13:29:37.620612,776.4468994140625,772.8204956054688,784.1025390625,798.2051391601562,923.91943359375
2023-12-11 13:29:37.628614,774.8351440429688,778.05859375,782.4908447265625,811.098876953125,1147.5457763671875
2023-12-11 13:29:37.649619,755.8974609375,778.4615478515625,783.6996459960938,809.084228515625,1091.135498046875
2023-12-11 13:29:37.664616,747.032958984375,778.4615478515625,786.5201416015625,809.89013671875,728.09521484375
2023-12-11 13:29:37.667619,755.091552734375,779.6703491210938,785.7142944335938,786.923095703125,732.930419921875
2023-12-11 13:29:37.677624,764.3589477539062,774.8351440429688,780.0732421875,769.1941528320312,856.2271118164062
2023-12-11 13:29:37.685614,772.8204956054688,772.4176025390625,780.4761962890625,784.5054931640625,904.981689453125
2023-12-11 13:29:37.697617,767.1795043945312,775.6410522460938,776.0439453125,783.2966918945312,840.915771484375
2023-12-11 13:29:37.711622,763.5531005859375,780.4761962890625,775.2380981445312,772.0146484375,777.6557006835938
2023-12-11 13:29:37.716615,765.1648559570312,780.0732421875,785.3113403320312,777.6557006835938,936.00732421875
2023-12-11 13:29:37.729617,762.3442993164062,777.6557006835938,780.4761962890625,808.2783813476562,971.062255859375
2023-12-11 13:29:37.736618,762.7472534179688,777.6557006835938,779.2673950195312,803.8461303710938,944.8717651367188
2023-12-11 13:29:37.748617,748.6447143554688,777.6557006835938,782.4908447265625,764.3589477539062,956.1538696289062
2023-12-11 13:29:37.754613,744.6153564453125,776.8497924804688,779.2673950195312,752.2710571289062,711.1721801757812
2023-12-11 13:29:37.777618,753.8828125,775.6410522460938,782.4908447265625,763.9560546875,512.930419921875
2023-12-11 13:29:37.779621,778.4615478515625,779.6703491210938,786.1171875,799.010986328125,754.2857055664062
2023-12-11 13:29:37.783616,776.0439453125,776.8497924804688,783.6996459960938,807.069580078125,983.5531005859375
2023-12-11 13:29:37.798617,753.076904296875,772.8204956054688,789.3406372070312,786.1171875,901.3552856445312
2023-12-11 13:29:37.806619,749.4505615234375,776.8497924804688,786.5201416015625,768.7911987304688,685.7875366210938
2023-12-11 13:29:37.817617,747.4359130859375,777.2527465820312,784.1025390625,770.8058471679688,618.901123046875
2023-12-11 13:29:37.829616,752.6740112304688,773.6264038085938,789.3406372070312,790.952392578125,908.2051391601562
2023-12-11 13:29:37.837620,753.4798583984375,770.4029541015625,781.2820434570312,798.6080322265625,1070.989013671875
2023-12-11 13:29:37.846619,745.8241577148438,768.7911987304688,776.0439453125,776.8497924804688,732.5274658203125
2023-12-11 13:29:37.854612,746.2271118164062,774.8351440429688,776.0439453125,758.7179565429688,597.1428833007812
2023-12-11 13:29:37.865622,758.3150024414062,776.8497924804688,775.2380981445312,776.8497924804688,709.96337890625
2023-12-11 13:29:37.872615,774.4322509765625,772.0146484375,773.2234497070312,789.7435913085938,799.4139404296875
2023-12-11 13:29:37.897621,812.7106323242188,777.2527465820312,767.5823974609375,799.010986328125,839.7069702148438
2023-12-11 13:29:37.901618,797.8021850585938,781.2820434570312,767.9853515625,809.4871826171875,763.9560546875
2023-12-11 13:29:37.904616,732.5274658203125,772.0146484375,770.4029541015625,778.4615478515625,685.3846435546875
2023-12-11 13:29:37.931622,729.3040161132812,761.1355590820312,776.4468994140625,756.3003540039062,586.2637329101562
2023-12-11 13:29:37.935616,763.1502075195312,758.7179565429688,777.2527465820312,775.6410522460938,682.1611938476562
2023-12-11 13:29:37.937631,780.4761962890625,759.5238037109375,770.0,792.967041015625,990.4029541015625
2023-12-11 13:29:37.951614,780.0732421875,761.94140625,768.3883056640625,793.7728881835938,1039.5604248046875
2023-12-11 13:29:37.965615,766.7765502929688,759.120849609375,770.0,766.7765502929688,682.1611938476562
2023-12-11 13:29:37.973631,761.1355590820312,751.062255859375,776.8497924804688,767.9853515625,483.1135559082031
2023-12-11 13:29:37.981618,778.05859375,762.3442993164062,778.8644409179688,793.3699340820312,671.6849975585938
2023-12-11 13:29:37.991651,786.1171875,778.4615478515625,769.1941528320312,796.5933837890625,916.6666870117188
2023-12-11 13:29:38.004617,780.4761962890625,774.029296875,763.9560546875,792.1611938476562,846.959716796875
2023-12-11 13:29:38.028621,774.029296875,763.5531005859375,767.1795043945312,798.2051391601562,610.4395751953125
2023-12-11 13:29:38.030622,770.0,764.3589477539062,775.6410522460938,794.5787353515625,721.6483764648438
2023-12-11 13:29:38.034617,769.1941528320312,770.0,772.0146484375,779.2673950195312,939.6337280273438
2023-12-11 13:29:38.048620,791.3552856445312,765.1648559570312,768.7911987304688,804.6520385742188,962.1978149414062
2023-12-11 13:29:38.062620,792.5640869140625,763.1502075195312,779.2673950195312,819.1575317382812,989.1941528320312
2023-12-11 13:29:38.071615,764.3589477539062,763.9560546875,782.893798828125,800.2197875976562,836.886474609375
2023-12-11 13:29:38.082617,754.6886596679688,767.9853515625,784.908447265625,784.908447265625,726.4835205078125
2023-12-11 13:29:38.089617,770.4029541015625,777.2527465820312,784.5054931640625,777.2527465820312,722.8571166992188
2023-12-11 13:29:38.100618,789.7435913085938,780.0732421875,778.05859375,803.040283203125,797.3992919921875
2023-12-11 13:29:38.115614,789.7435913085938,776.0439453125,782.4908447265625,822.7838745117188,1064.13916015625
2023-12-11 13:29:38.130615,773.6264038085938,771.6116943359375,786.5201416015625,797.8021850585938,919.084228515625
2023-12-11 13:29:38.134619,780.0732421875,771.6116943359375,780.879150390625,775.6410522460938,589.084228515625
2023-12-11 13:29:38.142620,794.981689453125,774.8351440429688,775.2380981445312,778.05859375,698.6813354492188
2023-12-11 13:29:38.152615,806.6666870117188,777.6557006835938,782.087890625,803.4432373046875,914.6520385742188
2023-12-11 13:29:38.168618,810.2930297851562,778.05859375,785.3113403320312,811.5018310546875,984.7619018554688
2023-12-11 13:29:38.179616,784.1025390625,776.8497924804688,782.4908447265625,799.010986328125,755.091552734375
2023-12-11 13:29:38.188618,771.6116943359375,774.8351440429688,783.2966918945312,796.1904907226562,588.2783813476562
2023-12-11 13:29:38.209631,788.1318969726562,773.6264038085938,782.087890625,794.1758422851562,734.5421142578125
2023-12-11 13:29:38.214615,804.2490844726562,774.4322509765625,783.6996459960938,800.6226806640625,770.8058471679688
2023-12-11 13:29:38.219618,806.2637329101562,776.4468994140625,788.1318969726562,801.8314819335938,792.5640869140625
2023-12-11 13:29:38.228620,789.3406372070312,776.0439453125,790.1465454101562,796.996337890625,854.2124633789062
2023-12-11 13:29:38.247618,774.8351440429688,774.8351440429688,789.3406372070312,783.2966918945312,932.7838745117188
2023-12-11 13:29:38.252615,774.4322509765625,775.2380981445312,781.6849975585938,774.4322509765625,700.2930297851562
2023-12-11 13:29:38.266619,802.6373901367188,777.2527465820312,779.6703491210938,796.1904907226562,609.6337280273438
2023-12-11 13:29:38.288616,813.113525390625,773.6264038085938,778.4615478515625,804.2490844726562,858.2417602539062
2023-12-11 13:29:38.294618,784.1025390625,771.6116943359375,785.3113403320312,807.069580078125,780.879150390625
2023-12-11 13:29:38.301615,770.4029541015625,774.4322509765625,791.7582397460938,790.952392578125,569.7435913085938
2023-12-11 13:29:38.315623,763.5531005859375,771.2088012695312,787.7289428710938,771.2088012695312,566.923095703125
2023-12-11 13:29:38.327617,775.2380981445312,767.5823974609375,785.7142944335938,802.2344360351562,738.1685180664062
2023-12-11 13:29:38.334615,786.923095703125,764.7619018554688,783.6996459960938,822.7838745117188,1001.2820434570312
2023-12-11 13:29:38.340620,776.4468994140625,762.3442993164062,788.5347900390625,804.2490844726562,1041.172119140625
2023-12-11 13:29:38.348615,762.7472534179688,764.3589477539062,794.1758422851562,784.5054931640625,748.2417602539062
2023-12-11 13:29:38.368616,768.3883056640625,765.1648559570312,786.923095703125,781.6849975585938,836.08056640625
2023-12-11 13:29:38.379617,772.4176025390625,763.1502075195312,779.6703491210938,791.3552856445312,1136.6666259765625
2023-12-11 13:29:38.391619,781.2820434570312,764.7619018554688,785.3113403320312,803.8461303710938,947.2893676757812
2023-12-11 13:29:38.401622,781.2820434570312,764.3589477539062,782.4908447265625,816.3369750976562,799.8168334960938
2023-12-11 13:29:38.429615,780.879150390625,765.970703125,780.0732421875,798.2051391601562,698.6813354492188
2023-12-11 13:29:38.432619,795.3846435546875,770.0,784.1025390625,774.4322509765625,484.3223571777344
2023-12-11 13:29:38.436615,785.7142944335938,772.8204956054688,789.7435913085938,786.1171875,557.2527465820312
2023-12-11 13:29:38.451614,790.1465454101562,769.5970458984375,791.7582397460938,817.1428833007812,877.9853515625
2023-12-11 13:29:38.462615,793.3699340820312,761.5384521484375,782.087890625,825.2014770507812,884.8351440429688
2023-12-11 13:29:38.469619,785.3113403320312,762.3442993164062,782.893798828125,812.7106323242188,660.8058471679688
2023-12-11 13:29:38.487618,783.2966918945312,765.970703125,777.6557006835938,803.8461303710938,654.7619018554688
2023-12-11 13:29:38.510620,794.1758422851562,767.1795043945312,776.8497924804688,796.1904907226562,804.2490844726562
2023-12-11 13:29:38.514618,803.4432373046875,767.1795043945312,787.7289428710938,817.5457763671875,1031.098876953125
2023-12-11 13:29:38.517615,801.025634765625,764.7619018554688,785.3113403320312,824.3956298828125,948.901123046875
2023-12-11 13:29:38.535616,793.3699340820312,765.1648559570312,780.879150390625,806.6666870117188,567.7289428710938
2023-12-11 13:29:38.541622,780.0732421875,767.1795043945312,776.8497924804688,807.87548828125,554.8351440429688
2023-12-11 13:29:38.565621,781.2820434570312,762.7472534179688,779.2673950195312,804.2490844726562,732.12451171875
2023-12-11 13:29:38.570613,797.3992919921875,761.1355590820312,780.4761962890625,800.6226806640625,799.010986328125
2023-12-11 13:29:38.585616,779.6703491210938,763.1502075195312,777.2527465820312,816.7399291992188,855.018310546875
2023-12-11 13:29:38.594620,749.4505615234375,757.106201171875,778.4615478515625,796.996337890625,841.7216186523438
2023-12-11 13:29:38.603615,752.6740112304688,756.3003540039062,778.4615478515625,767.5823974609375,610.03662109375
2023-12-11 13:29:38.611622,765.5677490234375,759.5238037109375,777.6557006835938,778.4615478515625,574.981689453125
2023-12-11 13:29:38.629615,777.2527465820312,756.7033081054688,782.4908447265625,792.967041015625,855.8241577148438
2023-12-11 13:29:38.634615,782.893798828125,759.5238037109375,778.8644409179688,805.4578857421875,1122.967041015625
2023-12-11 13:29:38.648617,776.4468994140625,756.3003540039062,777.2527465820312,794.981689453125,1015.3846435546875
2023-12-11 13:29:38.658625,778.4615478515625,753.4798583984375,782.893798828125,770.0,582.6373901367188
2023-12-11 13:29:38.662618,778.05859375,753.8828125,777.6557006835938,766.3735961914062,490.76922607421875
2023-12-11 13:29:38.667616,792.1611938476562,751.8681030273438,774.4322509765625,786.5201416015625,755.8974609375
2023-12-11 13:29:38.700616,802.2344360351562,754.2857055664062,776.4468994140625,811.90478515625,926.3369750976562
2023-12-11 13:29:38.703613,777.2527465820312,753.4798583984375,775.6410522460938,800.6226806640625,713.5897216796875
2023-12-11 13:29:38.717614,771.6116943359375,753.076904296875,776.0439453125,793.3699340820312,488.75457763671875
2023-12-11 13:29:38.729615,780.0732421875,751.8681030273438,769.5970458984375,794.5787353515625,660.0
2023-12-11 13:29:38.737615,789.3406372070312,747.4359130859375,769.1941528320312,790.952392578125,765.1648559570312
2023-12-11 13:29:38.751615,790.952392578125,751.4652099609375,775.2380981445312,824.7985229492188,879.5970458984375
2023-12-11 13:29:38.762619,797.8021850585938,751.062255859375,775.6410522460938,824.3956298828125,1005.7142944335938
2023-12-11 13:29:38.767619,793.7728881835938,745.018310546875,776.4468994140625,803.4432373046875,1024.6519775390625
2023-12-11 13:29:38.775642,779.6703491210938,749.8534545898438,774.8351440429688,796.1904907226562,856.6300659179688
2023-12-11 13:29:38.813618,796.1904907226562,755.091552734375,772.0146484375,801.8314819335938,726.886474609375
2023-12-11 13:29:38.816626,789.7435913085938,752.2710571289062,780.4761962890625,823.99267578125,936.4102783203125
2023-12-11 13:29:38.820615,765.1648559570312,750.2564086914062,780.879150390625,806.6666870117188,887.6557006835938
2023-12-11 13:29:38.834613,765.5677490234375,748.2417602539062,771.2088012695312,786.5201416015625,597.1428833007812
2023-12-11 13:29:38.850617,785.3113403320312,751.062255859375,778.05859375,791.3552856445312,564.908447265625
2023-12-11 13:29:38.861620,812.3076782226562,757.106201171875,777.6557006835938,814.3223266601562,907.8021850585938
2023-12-11 13:29:38.867613,803.8461303710938,754.2857055664062,775.6410522460938,820.3662719726562,1031.098876953125
2023-12-11 13:29:38.878616,772.0146484375,752.2710571289062,781.6849975585938,792.1611938476562,899.7435913085938
2023-12-11 13:29:38.887615,773.2234497070312,753.8828125,781.2820434570312,780.4761962890625,736.1538696289062
2023-12-11 13:29:38.910620,778.8644409179688,755.4945068359375,774.4322509765625,780.4761962890625,834.4688720703125
2023-12-11 13:29:38.916620,784.1025390625,756.3003540039062,774.8351440429688,792.5640869140625,1071.3919677734375
2023-12-11 13:29:38.927618,815.1282348632812,765.1648559570312,782.893798828125,809.4871826171875,992.8204956054688
2023-12-11 13:29:38.940621,819.1575317382812,770.8058471679688,785.7142944335938,821.97802734375,905.7875366210938
2023-12-11 13:29:38.953615,794.1758422851562,765.1648559570312,792.5640869140625,812.3076782226562,671.2820434570312
2023-12-11 13:29:38.966615,789.7435913085938,762.3442993164062,794.1758422851562,792.967041015625,516.959716796875
2023-12-11 13:29:38.987617,797.3992919921875,763.5531005859375,792.5640869140625,803.040283203125,591.5018310546875
2023-12-11 13:29:38.991622,809.89013671875,766.7765502929688,788.937744140625,817.5457763671875,767.5823974609375
2023-12-11 13:29:39.001614,789.3406372070312,764.3589477539062,786.1171875,825.6043701171875,892.087890625
2023-12-11 13:29:39.011614,787.7289428710938,762.3442993164062,790.5494384765625,814.3223266601562,662.4176025390625
2023-12-11 13:29:39.020612,801.4285888671875,765.970703125,790.952392578125,793.3699340820312,449.6703186035156
2023-12-11 13:29:39.033620,804.6520385742188,764.3589477539062,791.3552856445312,801.8314819335938,685.7875366210938
2023-12-11 13:29:39.044622,805.4578857421875,764.7619018554688,794.5787353515625,821.1721801757812,1026.6666259765625
2023-12-11 13:29:39.053616,789.3406372070312,764.7619018554688,796.5933837890625,828.4249267578125,1022.2344360351562
2023-12-11 13:29:39.070614,784.5054931640625,762.7472534179688,800.2197875976562,821.1721801757812,718.02197265625
2023-12-11 13:29:39.079615,791.7582397460938,763.1502075195312,801.8314819335938,813.5164794921875,663.2234497070312
2023-12-11 13:29:39.083626,796.1904907226562,762.3442993164062,797.8021850585938,801.025634765625,1169.7069091796875
2023-12-11 13:29:39.130615,797.3992919921875,765.5677490234375,794.1758422851562,803.4432373046875,1232.967041015625
2023-12-11 13:29:39.146644,797.3992919921875,769.1941528320312,805.054931640625,817.1428833007812,882.8204956054688
2023-12-11 13:29:39.149622,785.7142944335938,767.9853515625,806.6666870117188,789.7435913085938,708.3516235351562
2023-12-11 13:29:39.153615,786.5201416015625,768.7911987304688,801.025634765625,776.8497924804688,590.2930297851562
2023-12-11 13:29:39.169617,803.040283203125,767.9853515625,805.4578857421875,782.893798828125,589.4871826171875
2023-12-11 13:29:39.184616,809.4871826171875,765.5677490234375,810.6959838867188,795.3846435546875,800.6226806640625
2023-12-11 13:29:39.196616,807.87548828125,768.3883056640625,809.084228515625,803.8461303710938,1076.6300048828125
2023-12-11 13:29:39.201616,805.8607788085938,772.4176025390625,808.2783813476562,796.5933837890625,914.2490844726562
2023-12-11 13:29:39.214617,793.7728881835938,769.5970458984375,813.113525390625,775.2380981445312,513.3333129882812
2023-12-11 13:29:39.231622,790.952392578125,764.7619018554688,815.1282348632812,771.6116943359375,532.6740112304688
2023-12-11 13:29:39.242625,806.2637329101562,761.94140625,811.5018310546875,804.2490844726562,998.05859375
2023-12-11 13:29:39.258625,819.5604248046875,760.3296508789062,805.4578857421875,827.2161254882812,1225.7142333984375
2023-12-11 13:29:39.263614,805.8607788085938,760.3296508789062,799.8168334960938,819.1575317382812,882.8204956054688
2023-12-11 13:29:39.293622,791.7582397460938,761.1355590820312,799.8168334960938,795.7875366210938,588.2783813476562
2023-12-11 13:29:39.297615,782.087890625,758.7179565429688,804.6520385742188,774.4322509765625,596.3369750976562
2023-12-11 13:29:39.300622,790.1465454101562,757.5091552734375,805.054931640625,780.879150390625,786.923095703125
2023-12-11 13:29:39.303614,813.113525390625,763.5531005859375,803.040283203125,802.2344360351562,888.8644409179688
2023-12-11 13:29:39.316616,806.6666870117188,767.5823974609375,802.6373901367188,805.4578857421875,870.3296508789062
2023-12-11 13:29:39.334614,790.1465454101562,763.9560546875,796.996337890625,784.5054931640625,795.7875366210938
2023-12-11 13:29:39.349614,791.3552856445312,766.7765502929688,798.2051391601562,792.1611938476562,677.3259887695312
2023-12-11 13:29:39.360619,804.2490844726562,771.6116943359375,813.91943359375,809.4871826171875,727.6923217773438
2023-12-11 13:29:39.382616,821.5750732421875,768.3883056640625,823.99267578125,805.8607788085938,1008.1318969726562
2023-12-11 13:29:39.391627,808.2783813476562,767.5823974609375,823.5897216796875,799.010986328125,1218.05859375
2023-12-11 13:29:39.403615,792.5640869140625,772.8204956054688,825.6043701171875,790.5494384765625,758.3150024414062
2023-12-11 13:29:39.427620,801.025634765625,772.8204956054688,828.02197265625,789.3406372070312,460.952392578125
2023-12-11 13:29:39.445619,819.96337890625,771.2088012695312,830.4395751953125,810.2930297851562,803.8461303710938
2023-12-11 13:29:39.461619,836.4835205078125,770.8058471679688,830.4395751953125,835.2747192382812,941.2454223632812
2023-12-11 13:29:39.465621,823.1868286132812,771.6116943359375,825.2014770507812,814.7252807617188,785.7142944335938
2023-12-11 13:29:39.468617,792.5640869140625,774.4322509765625,819.1575317382812,789.3406372070312,622.12451171875
2023-12-11 13:29:39.479616,772.4176025390625,775.6410522460938,818.3516235351562,796.5933837890625,535.4945068359375
2023-12-11 13:29:39.500615,792.5640869140625,775.2380981445312,822.7838745117188,798.2051391601562,651.94140625
2023-12-11 13:29:39.508618,808.6813354492188,774.4322509765625,824.3956298828125,792.1611938476562,787.3259887695312
2023-12-11 13:29:39.517614,799.8168334960938,778.05859375,817.1428833007812,798.2051391601562,840.915771484375
2023-12-11 13:29:39.531614,785.3113403320312,777.2527465820312,814.7252807617188,799.4139404296875,847.7655639648438
2023-12-11 13:29:39.543613,782.4908447265625,777.2527465820312,819.1575317382812,782.893798828125,644.6886596679688
2023-12-11 13:29:39.553615,784.1025390625,777.2527465820312,820.7692260742188,785.3113403320312,631.7948608398438
2023-12-11 13:29:39.575622,797.3992919921875,774.4322509765625,822.3809814453125,810.6959838867188,886.8497924804688
2023-12-11 13:29:39.600621,803.040283203125,774.029296875,822.3809814453125,815.93408203125,1096.3736572265625
2023-12-11 13:29:39.606618,781.2820434570312,770.8058471679688,814.3223266601562,800.2197875976562,965.8241577148438
2023-12-11 13:29:39.614615,776.4468994140625,772.4176025390625,815.1282348632812,790.952392578125,598.3516235351562
2023-12-11 13:29:39.626618,781.2820434570312,771.2088012695312,821.5750732421875,793.3699340820312,761.5384521484375
2023-12-11 13:29:39.639663,792.5640869140625,770.4029541015625,817.5457763671875,812.3076782226562,1133.4432373046875
2023-12-11 13:29:39.647617,788.937744140625,767.1795043945312,815.1282348632812,820.3662719726562,1063.3333740234375
2023-12-11 13:29:39.658620,788.937744140625,757.5091552734375,818.3516235351562,788.1318969726562,801.4285888671875
2023-12-11 13:29:39.669618,787.7289428710938,761.94140625,815.93408203125,768.3883056640625,733.7362670898438
2023-12-11 13:29:39.679619,783.6996459960938,774.4322509765625,806.6666870117188,782.4908447265625,709.1575317382812
2023-12-11 13:29:39.684614,800.2197875976562,776.0439453125,801.8314819335938,805.054931640625,694.2490844726562
2023-12-11 13:29:39.708623,802.6373901367188,772.0146484375,807.4725341796875,828.4249267578125,692.6373901367188
2023-12-11 13:29:39.720615,801.8314819335938,771.6116943359375,814.3223266601562,813.5164794921875,762.7472534179688
2023-12-11 13:29:39.732619,797.8021850585938,774.4322509765625,812.7106323242188,784.908447265625,786.1171875
2023-12-11 13:29:39.742621,796.996337890625,778.05859375,812.7106323242188,789.3406372070312,650.7326049804688
2023-12-11 13:29:39.752614,813.91943359375,777.2527465820312,813.113525390625,811.90478515625,707.94873046875
2023-12-11 13:29:39.792620,808.6813354492188,776.0439453125,815.1282348632812,837.6923217773438,950.5128173828125
2023-12-11 13:29:39.796614,793.3699340820312,777.2527465820312,814.3223266601562,822.7838745117188,875.1648559570312
2023-12-11 13:29:39.803614,789.3406372070312,776.8497924804688,808.6813354492188,788.937744140625,668.8644409179688
2023-12-11 13:29:39.814615,782.893798828125,775.2380981445312,809.4871826171875,786.923095703125,776.4468994140625
2023-12-11 13:29:39.830615,785.3113403320312,774.8351440429688,811.5018310546875,803.040283203125,942.8571166992188
2023-12-11 13:29:39.844615,799.8168334960938,776.0439453125,813.113525390625,813.5164794921875,969.4505615234375
2023-12-11 13:29:39.865618,788.5347900390625,778.4615478515625,813.91943359375,807.87548828125,746.2271118164062
2023-12-11 13:29:39.869622,773.6264038085938,775.2380981445312,807.4725341796875,791.7582397460938,425.4945068359375
2023-12-11 13:29:39.880616,766.7765502929688,771.6116943359375,799.010986328125,782.087890625,535.8974609375
2023-12-11 13:29:39.914617,778.8644409179688,773.2234497070312,801.025634765625,788.937744140625,792.1611938476562
2023-12-11 13:29:39.917618,802.6373901367188,774.4322509765625,805.4578857421875,810.2930297851562,875.5677490234375
2023-12-11 13:29:39.927616,800.6226806640625,776.0439453125,803.040283203125,807.069580078125,900.5494384765625
2023-12-11 13:29:39.935615,785.7142944335938,779.6703491210938,804.6520385742188,785.3113403320312,917.4725341796875
2023-12-11 13:29:39.948619,764.7619018554688,776.8497924804688,806.2637329101562,782.4908447265625,820.7692260742188
2023-12-11 13:29:39.959619,767.5823974609375,773.6264038085938,804.2490844726562,801.8314819335938,814.7252807617188
2023-12-11 13:29:39.976615,776.4468994140625,779.2673950195312,805.8607788085938,810.6959838867188,1026.2637939453125
2023-12-11 13:29:39.990625,776.8497924804688,781.6849975585938,809.89013671875,813.113525390625,1019.8168334960938
2023-12-11 13:29:40.001617,786.1171875,782.087890625,806.6666870117188,814.7252807617188,728.4981689453125
2023-12-11 13:29:40.012616,788.1318969726562,785.3113403320312,804.2490844726562,803.8461303710938,498.4248962402344
2023-12-11 13:29:40.019617,804.6520385742188,783.6996459960938,805.4578857421875,798.6080322265625,695.054931640625
2023-12-11 13:29:40.047617,808.2783813476562,777.2527465820312,801.8314819335938,823.5897216796875,930.3662719726562
2023-12-11 13:29:40.069615,787.7289428710938,775.6410522460938,798.2051391601562,825.2014770507812,855.4212646484375
2023-12-11 13:29:40.074619,770.8058471679688,776.8497924804688,798.6080322265625,796.5933837890625,553.2234497070312
2023-12-11 13:29:40.079614,766.7765502929688,774.4322509765625,798.2051391601562,788.937744140625,611.6483764648438
2023-12-11 13:29:40.093618,773.6264038085938,772.4176025390625,799.010986328125,811.5018310546875,995.2380981445312
2023-12-11 13:29:40.116618,784.908447265625,772.8204956054688,800.2197875976562,817.94873046875,913.4432373046875
2023-12-11 13:29:40.144618,772.0146484375,769.1941528320312,799.4139404296875,799.010986328125,757.106201171875
2023-12-11 13:29:40.147615,749.8534545898438,768.3883056640625,799.010986328125,773.6264038085938,939.2307739257812
2023-12-11 13:29:40.152614,754.6886596679688,771.6116943359375,796.1904907226562,768.3883056640625,855.4212646484375
2023-12-11 13:29:40.160617,777.2527465820312,774.029296875,801.025634765625,787.7289428710938,587.4725341796875
2023-12-11 13:29:40.176617,778.8644409179688,772.4176025390625,801.8314819335938,807.4725341796875,786.1171875
2023-12-11 13:29:40.182616,771.2088012695312,770.8058471679688,796.996337890625,813.113525390625,922.7106323242188
2023-12-11 13:29:40.201618,757.106201171875,774.4322509765625,799.4139404296875,797.3992919921875,679.7435913085938
2023-12-11 13:29:40.234617,754.2857055664062,776.0439453125,799.010986328125,771.6116943359375,462.1611633300781
2023-12-11 13:29:40.239617,762.3442993164062,776.0439453125,798.2051391601562,779.6703491210938,641.4652099609375
2023-12-11 13:29:40.244617,766.7765502929688,773.6264038085938,797.3992919921875,799.8168334960938,1003.2966918945312
2023-12-11 13:29:40.258622,787.3259887695312,772.8204956054688,800.2197875976562,805.4578857421875,995.6410522460938
2023-12-11 13:29:40.265614,794.981689453125,775.6410522460938,800.6226806640625,796.996337890625,620.915771484375
2023-12-11 13:29:40.279615,776.8497924804688,776.8497924804688,796.5933837890625,780.879150390625,591.098876953125
2023-12-11 13:29:40.284615,781.6849975585938,778.05859375,799.010986328125,788.5347900390625,904.981689453125
2023-12-11 13:29:40.306619,815.1282348632812,780.4761962890625,801.4285888671875,817.94873046875,935.2014770507812
2023-12-11 13:29:40.331614,817.94873046875,782.4908447265625,796.996337890625,839.7069702148438,867.106201171875
2023-12-11 13:29:40.344617,794.1758422851562,784.908447265625,795.7875366210938,833.6630249023438,885.2380981445312
2023-12-11 13:29:40.351615,780.0732421875,784.1025390625,804.2490844726562,816.7399291992188,815.93408203125
2023-12-11 13:29:40.375620,786.5201416015625,779.2673950195312,798.2051391601562,801.4285888671875,718.02197265625
2023-12-11 13:29:40.400621,803.040283203125,778.4615478515625,787.7289428710938,805.4578857421875,859.4505615234375
2023-12-11 13:29:40.403617,805.054931640625,776.4468994140625,791.3552856445312,824.7985229492188,1126.1904296875
2023-12-11 13:29:40.457625,786.1171875,777.6557006835938,794.1758422851562,820.3662719726562,980.3296508789062
2023-12-11 13:29:40.494616,774.4322509765625,781.6849975585938,791.7582397460938,797.8021850585938,588.6813354492188
2023-12-11 13:29:40.516618,767.9853515625,781.2820434570312,792.1611938476562,794.981689453125,612.4542236328125
2023-12-11 13:29:40.524621,769.1941528320312,780.0732421875,792.1611938476562,796.996337890625,855.018310546875
2023-12-11 13:29:40.540618,783.2966918945312,779.6703491210938,790.952392578125,808.2783813476562,954.1392211914062
2023-12-11 13:29:40.575615,784.908447265625,782.087890625,789.3406372070312,803.4432373046875,823.99267578125
2023-12-11 13:29:40.581620,766.3735961914062,785.7142944335938,793.7728881835938,780.0732421875,545.5677490234375
2023-12-11 13:29:40.591621,753.4798583984375,783.2966918945312,798.6080322265625,772.4176025390625,640.6593627929688
2023-12-11 13:29:40.618616,768.3883056640625,782.087890625,792.967041015625,789.3406372070312,872.7472534179688
2023-12-11 13:29:40.632616,779.2673950195312,786.1171875,794.1758422851562,808.6813354492188,819.96337890625
2023-12-11 13:29:40.651615,783.2966918945312,787.7289428710938,796.5933837890625,798.6080322265625,752.2710571289062
2023-12-11 13:29:40.674618,766.7765502929688,784.908447265625,792.967041015625,792.1611938476562,841.7216186523438
2023-12-11 13:29:40.697616,759.120849609375,783.2966918945312,791.3552856445312,787.3259887695312,739.7802124023438
2023-12-11 13:29:40.718615,772.0146484375,784.908447265625,793.3699340820312,784.908447265625,718.4249267578125
2023-12-11 13:29:40.725617,797.3992919921875,782.087890625,792.5640869140625,803.040283203125,1066.959716796875
2023-12-11 13:29:40.729616,787.3259887695312,779.2673950195312,792.967041015625,817.1428833007812,1174.5421142578125
2023-12-11 13:29:40.745620,748.6447143554688,781.6849975585938,791.7582397460938,794.981689453125,840.10986328125
2023-12-11 13:29:40.751614,755.8974609375,783.6996459960938,789.7435913085938,773.2234497070312,535.8974609375
2023-12-11 13:29:40.767616,782.893798828125,783.6996459960938,794.1758422851562,799.4139404296875,658.7911987304688
2023-12-11 13:29:40.781612,789.7435913085938,782.893798828125,797.8021850585938,834.8717651367188,1010.5494384765625
2023-12-11 13:29:40.792620,785.7142944335938,781.2820434570312,795.7875366210938,815.1282348632812,880.8058471679688
2023-12-11 13:29:40.799618,796.1904907226562,779.2673950195312,793.7728881835938,776.0439453125,555.6410522460938
2023-12-11 13:29:40.846618,779.2673950195312,777.6557006835938,799.010986328125,773.2234497070312,594.3223266601562
2023-12-11 13:29:40.849621,785.7142944335938,778.4615478515625,795.3846435546875,784.908447265625,771.2088012695312
2023-12-11 13:29:40.857620,798.2051391601562,778.4615478515625,787.3259887695312,796.996337890625,877.1795043945312
2023-12-11 13:29:40.866616,780.879150390625,781.6849975585938,794.5787353515625,805.4578857421875,900.952392578125
2023-12-11 13:29:40.882615,769.1941528320312,786.5201416015625,799.010986328125,794.981689453125,731.7216186523438
2023-12-11 13:29:40.901614,765.5677490234375,785.7142944335938,796.5933837890625,780.0732421875,530.6593627929688
2023-12-11 13:29:40.917614,778.4615478515625,780.4761962890625,795.3846435546875,793.7728881835938,596.3369750976562
2023-12-11 13:29:40.929623,779.2673950195312,780.0732421875,796.1904907226562,794.1758422851562,920.2930297851562
2023-12-11 13:29:40.940620,782.4908447265625,784.1025390625,798.2051391601562,796.1904907226562,1224.5054931640625
2023-12-11 13:29:41.040619,780.879150390625,784.1025390625,790.952392578125,801.4285888671875,1048.02197265625
2023-12-11 13:29:41.045620,765.5677490234375,782.893798828125,792.1611938476562,775.6410522460938,597.94873046875
2023-12-11 13:29:41.074619,782.4908447265625,783.6996459960938,793.3699340820312,774.4322509765625,718.02197265625
2023-12-11 13:29:41.093618,788.5347900390625,788.1318969726562,787.7289428710938,795.7875366210938,947.2893676757812
2023-12-11 13:29:41.098617,777.6557006835938,786.1171875,793.3699340820312,804.2490844726562,860.2564086914062
2023-12-11 13:29:41.107617,784.1025390625,780.0732421875,796.5933837890625,805.054931640625,628.974365234375
2023-12-11 13:29:41.128618,781.2820434570312,777.6557006835938,796.1904907226562,786.923095703125,419.8534851074219
2023-12-11 13:29:41.181621,788.937744140625,778.05859375,796.5933837890625,780.879150390625,510.5128173828125
2023-12-11 13:29:41.217616,796.996337890625,784.1025390625,795.7875366210938,813.91943359375,834.8717651367188
2023-12-11 13:29:41.242617,795.3846435546875,782.893798828125,785.7142944335938,813.91943359375,974.6886596679688
2023-12-11 13:29:41.250618,789.3406372070312,778.05859375,781.2820434570312,792.967041015625,935.6043701171875
2023-12-11 13:29:41.262619,773.2234497070312,775.6410522460938,787.7289428710938,783.2966918945312,962.1978149414062
2023-12-11 13:29:41.297618,774.4322509765625,778.05859375,787.7289428710938,778.4615478515625,857.8388061523438
2023-12-11 13:29:41.316615,790.952392578125,783.2966918945312,788.5347900390625,794.5787353515625,778.8644409179688
2023-12-11 13:29:41.325618,805.4578857421875,781.6849975585938,786.923095703125,807.4725341796875,1002.4908447265625
2023-12-11 13:29:41.362619,790.1465454101562,780.879150390625,786.1171875,801.025634765625,921.5018310546875
2023-12-11 13:29:41.365617,765.5677490234375,784.1025390625,795.3846435546875,771.2088012695312,655.1648559570312
2023-12-11 13:29:41.374623,770.0,783.6996459960938,799.010986328125,757.106201171875,627.3626098632812
2023-12-11 13:29:41.382614,777.2527465820312,774.4322509765625,792.1611938476562,777.2527465820312,750.6593627929688
2023-12-11 13:29:41.407654,786.923095703125,773.2234497070312,789.7435913085938,797.8021850585938,894.1025390625
2023-12-11 13:29:41.417614,787.3259887695312,778.8644409179688,790.5494384765625,801.8314819335938,828.02197265625
2023-12-11 13:29:41.430648,768.3883056640625,776.8497924804688,790.952392578125,788.5347900390625,648.7179565429688
2023-12-11 13:29:41.440622,756.3003540039062,771.6116943359375,793.7728881835938,779.2673950195312,664.8351440429688
2023-12-11 13:29:41.460615,771.2088012695312,770.4029541015625,791.7582397460938,783.2966918945312,893.6996459960938
2023-12-11 13:29:41.475615,778.05859375,774.8351440429688,786.923095703125,797.3992919921875,836.886474609375
2023-12-11 13:29:41.493618,772.0146484375,777.6557006835938,794.1758422851562,805.054931640625,686.1904907226562
2023-12-11 13:29:41.527617,768.7911987304688,776.0439453125,795.7875366210938,787.7289428710938,625.7509155273438
2023-12-11 13:29:41.547623,768.3883056640625,779.2673950195312,786.923095703125,778.05859375,667.2527465820312
2023-12-11 13:29:41.550618,782.087890625,784.5054931640625,784.5054931640625,790.5494384765625,732.5274658203125
2023-12-11 13:29:41.557622,792.967041015625,786.1171875,788.5347900390625,811.90478515625,926.3369750976562
2023-12-11 13:29:41.565615,784.1025390625,787.7289428710938,790.5494384765625,819.5604248046875,926.7399291992188
2023-12-11 13:29:41.581615,779.6703491210938,788.937744140625,781.6849975585938,797.8021850585938,692.6373901367188
2023-12-11 13:29:41.599618,792.967041015625,789.7435913085938,781.2820434570312,793.7728881835938,616.08056640625
2023-12-11 13:29:41.605639,802.2344360351562,788.1318969726562,783.6996459960938,808.2783813476562,778.4615478515625
2023-12-11 13:29:41.630618,802.6373901367188,788.937744140625,785.3113403320312,830.03662109375,1199.5238037109375
2023-12-11 13:29:41.651614,791.3552856445312,789.7435913085938,793.3699340820312,834.4688720703125,1097.179443359375
2023-12-11 13:29:41.674619,786.923095703125,790.5494384765625,795.3846435546875,799.010986328125,611.6483764648438
2023-12-11 13:29:41.683616,774.8351440429688,788.937744140625,788.1318969726562,786.1171875,541.94140625
2023-12-11 13:29:41.698614,776.0439453125,784.908447265625,780.0732421875,805.8607788085938,643.076904296875
2023-12-11 13:29:41.706622,811.098876953125,787.3259887695312,784.908447265625,843.7362670898438,796.5933837890625
2023-12-11 13:29:41.715615,809.084228515625,788.1318969726562,789.7435913085938,831.6483764648438,837.2893676757812
2023-12-11 13:29:41.725617,780.879150390625,788.937744140625,785.7142944335938,782.893798828125,766.7765502929688
2023-12-11 13:29:41.739631,782.893798828125,788.1318969726562,782.087890625,777.2527465820312,656.7765502929688
2023-12-11 13:29:41.760613,788.5347900390625,781.6849975585938,786.923095703125,792.967041015625,598.3516235351562
2023-12-11 13:29:41.763616,797.8021850585938,783.2966918945312,794.5787353515625,812.3076782226562,751.062255859375
2023-12-11 13:29:41.763616,807.87548828125,788.1318969726562,789.7435913085938,827.6190185546875,1016.996337890625
2023-12-11 13:29:41.764615,776.0439453125,786.5201416015625,784.908447265625,807.87548828125,940.03662109375
2023-12-11 13:29:41.764615,746.2271118164062,784.1025390625,787.7289428710938,779.2673950195312,580.6226806640625
2023-12-11 13:29:41.764615,748.6447143554688,784.5054931640625,787.7289428710938,769.5970458984375,649.5238037109375
2023-12-11 13:29:41.765617,763.1502075195312,785.7142944335938,784.5054931640625,777.2527465820312,894.908447265625
2023-12-11 13:29:41.765617,774.4322509765625,784.5054931640625,783.2966918945312,798.6080322265625,1035.128173828125
2023-12-11 13:29:41.770620,760.3296508789062,782.087890625,781.6849975585938,793.7728881835938,857.8388061523438
2023-12-11 13:29:41.776617,747.032958984375,785.3113403320312,786.923095703125,778.4615478515625,559.2673950195312
2023-12-11 13:29:41.776617,761.94140625,786.923095703125,789.3406372070312,778.8644409179688,487.5457763671875
2023-12-11 13:29:41.776617,788.5347900390625,782.893798828125,781.6849975585938,780.0732421875,755.8974609375
2023-12-11 13:29:41.777621,796.1904907226562,780.879150390625,778.8644409179688,792.5640869140625,947.2893676757812
2023-12-11 13:29:41.778617,786.1171875,784.1025390625,781.6849975585938,799.010986328125,885.2380981445312
2023-12-11 13:29:41.778617,790.5494384765625,782.893798828125,784.5054931640625,794.5787353515625,792.967041015625
2023-12-11 13:29:41.779622,791.7582397460938,781.2820434570312,786.5201416015625,784.908447265625,725.2747192382812
2023-12-11 13:29:41.779622,781.2820434570312,782.893798828125,784.908447265625,792.1611938476562,826.8131713867188
2023-12-11 13:29:41.780616,781.6849975585938,778.4615478515625,776.8497924804688,815.1282348632812,1051.245361328125
2023-12-11 13:29:41.780616,782.893798828125,780.0732421875,775.6410522460938,813.5164794921875,1224.1025390625
2023-12-11 13:29:41.781615,784.1025390625,782.087890625,782.087890625,792.967041015625,860.6593627929688
2023-12-11 13:29:41.784617,772.0146484375,781.2820434570312,787.7289428710938,782.087890625,509.70697021484375
2023-12-11 13:29:41.785622,780.0732421875,784.908447265625,783.6996459960938,789.3406372070312,738.1685180664062
2023-12-11 13:29:41.787622,787.3259887695312,783.2966918945312,779.2673950195312,811.098876953125,991.6116943359375
2023-12-11 13:29:41.788626,771.6116943359375,781.2820434570312,782.893798828125,807.87548828125,912.6373901367188
2023-12-11 13:29:41.789648,778.05859375,785.7142944335938,784.1025390625,762.7472534179688,670.879150390625
2023-12-11 13:29:41.790622,776.4468994140625,783.6996459960938,782.087890625,755.091552734375,646.3003540039062
2023-12-11 13:29:41.790622,765.1648559570312,780.0732421875,784.1025390625,785.3113403320312,793.3699340820312
2023-12-11 13:29:41.791615,772.4176025390625,782.893798828125,785.3113403320312,799.4139404296875,869.120849609375
2023-12-11 13:29:41.791615,781.2820434570312,782.893798828125,780.4761962890625,799.8168334960938,826.8131713867188
2023-12-11 13:29:41.792615,769.1941528320312,784.5054931640625,781.6849975585938,788.5347900390625,774.4322509765625
2023-12-11 13:29:41.792615,753.4798583984375,784.1025390625,780.879150390625,780.879150390625,869.9267578125
2023-12-11 13:29:41.792615,770.0,782.087890625,772.4176025390625,791.7582397460938,803.4432373046875
2023-12-11 13:29:41.795616,780.879150390625,783.2966918945312,770.0,806.6666870117188,906.996337890625
2023-12-11 13:29:41.796615,782.4908447265625,786.923095703125,776.4468994140625,796.1904907226562,880.8058471679688
2023-12-11 13:29:41.796615,781.6849975585938,789.3406372070312,782.893798828125,780.0732421875,616.886474609375
2023-12-11 13:29:41.799615,773.2234497070312,786.1171875,784.5054931640625,774.029296875,489.1575012207031
2023-12-11 13:29:41.800615,790.952392578125,785.3113403320312,789.3406372070312,792.1611938476562,665.2380981445312
2023-12-11 13:29:41.800615,792.5640869140625,787.3259887695312,786.923095703125,806.6666870117188,1061.3187255859375
2023-12-11 13:29:41.801617,784.1025390625,788.1318969726562,780.4761962890625,803.040283203125,1087.912109375
2023-12-11 13:29:41.803620,769.1941528320312,787.7289428710938,778.4615478515625,776.0439453125,748.2417602539062
2023-12-11 13:29:41.804621,756.3003540039062,789.7435913085938,780.879150390625,751.8681030273438,581.4285888671875
2023-12-11 13:29:41.805645,773.2234497070312,786.5201416015625,784.1025390625,768.7911987304688,799.4139404296875
2023-12-11 13:29:41.806621,785.7142944335938,779.6703491210938,786.5201416015625,788.1318969726562,890.879150390625
2023-12-11 13:29:41.806621,781.2820434570312,784.1025390625,787.3259887695312,794.1758422851562,853.003662109375
2023-12-11 13:29:42.366614,764.3589477539062,784.5054931640625,786.5201416015625,788.1318969726562,859.4505615234375
2023-12-11 13:29:42.432613,759.9267578125,779.2673950195312,787.7289428710938,775.6410522460938,724.8717651367188
2023-12-11 13:29:42.445617,762.3442993164062,784.1025390625,787.3259887695312,768.3883056640625,742.1978149414062
2023-12-11 13:29:42.462616,778.05859375,791.7582397460938,785.7142944335938,782.4908447265625,977.912109375
2023-12-11 13:29:42.480617,786.5201416015625,794.5787353515625,790.952392578125,792.967041015625,1052.05126953125
2023-12-11 13:29:42.486633,761.5384521484375,792.1611938476562,792.967041015625,788.5347900390625,925.5311279296875
2023-12-11 13:29:42.506620,756.3003540039062,787.3259887695312,789.7435913085938,776.4468994140625,642.6740112304688
2023-12-11 13:29:42.515615,782.4908447265625,790.5494384765625,790.5494384765625,786.923095703125,539.9267578125
2023-12-11 13:29:42.540619,804.6520385742188,796.996337890625,784.5054931640625,798.2051391601562,810.2930297851562
2023-12-11 13:29:42.560617,795.7875366210938,796.5933837890625,782.893798828125,792.5640869140625,985.5677490234375
2023-12-11 13:29:42.569619,794.1758422851562,799.010986328125,788.937744140625,794.981689453125,794.981689453125
2023-12-11 13:29:42.598614,794.1758422851562,801.8314819335938,783.6996459960938,781.2820434570312,568.5347900390625
2023-12-11 13:29:42.640619,783.6996459960938,798.6080322265625,783.6996459960938,771.6116943359375,860.2564086914062
2023-12-11 13:29:42.643619,777.2527465820312,795.7875366210938,788.5347900390625,784.1025390625,1070.5860595703125
2023-12-11 13:29:42.657623,776.4468994140625,794.5787353515625,786.5201416015625,789.7435913085938,901.3552856445312
2023-12-11 13:29:42.680615,776.8497924804688,797.3992919921875,794.5787353515625,797.8021850585938,808.2783813476562
2023-12-11 13:29:42.696616,759.120849609375,797.8021850585938,807.069580078125,778.4615478515625,661.6116943359375
2023-12-11 13:29:42.734620,754.2857055664062,793.7728881835938,801.4285888671875,759.9267578125,604.3956298828125
2023-12-11 13:29:42.738617,770.8058471679688,795.3846435546875,792.5640869140625,790.952392578125,728.09521484375
2023-12-11 13:29:42.745614,778.05859375,802.6373901367188,793.3699340820312,805.4578857421875,950.5128173828125
2023-12-11 13:29:42.756615,759.9267578125,800.2197875976562,790.952392578125,784.1025390625,936.4102783203125
2023-12-11 13:29:42.763616,750.6593627929688,800.2197875976562,787.7289428710938,760.3296508789062,650.7326049804688
2023-12-11 13:29:42.788618,769.1941528320312,806.2637329101562,795.7875366210938,756.3003540039062,554.8351440429688
2023-12-11 13:29:42.804622,780.4761962890625,798.2051391601562,801.4285888671875,780.4761962890625,789.7435913085938
2023-12-11 13:29:42.815616,780.4761962890625,790.5494384765625,802.2344360351562,814.3223266601562,1195.091552734375
2023-12-11 13:29:42.839616,771.2088012695312,796.1904907226562,805.4578857421875,816.7399291992188,979.5238037109375
2023-12-11 13:29:42.862616,776.0439453125,801.4285888671875,801.8314819335938,782.4908447265625,606.8131713867188
2023-12-11 13:29:42.877616,772.8204956054688,796.5933837890625,797.8021850585938,754.6886596679688,710.7692260742188
2023-12-11 13:29:42.889619,758.7179565429688,794.981689453125,794.5787353515625,761.5384521484375,852.1978149414062
2023-12-11 13:29:42.899614,786.923095703125,802.6373901367188,786.923095703125,799.8168334960938,927.1428833007812
2023-12-11 13:29:42.916615,801.4285888671875,809.4871826171875,787.3259887695312,807.069580078125,896.923095703125
2023-12-11 13:29:42.929616,773.6264038085938,805.054931640625,798.2051391601562,784.908447265625,829.6337280273438
2023-12-11 13:29:42.942617,761.94140625,794.981689453125,803.8461303710938,779.2673950195312,682.5640869140625
2023-12-11 13:29:42.960620,770.4029541015625,800.6226806640625,796.5933837890625,779.2673950195312,645.091552734375
2023-12-11 13:29:42.980614,766.7765502929688,805.054931640625,789.3406372070312,786.923095703125,775.2380981445312
2023-12-11 13:29:42.998616,768.3883056640625,803.4432373046875,790.1465454101562,790.1465454101562,1033.113525390625
2023-12-11 13:29:43.040619,771.6116943359375,804.6520385742188,794.1758422851562,773.2234497070312,1052.05126953125
2023-12-11 13:29:43.044619,755.091552734375,803.040283203125,795.3846435546875,756.3003540039062,617.6923217773438
2023-12-11 13:29:43.049614,773.2234497070312,807.87548828125,789.3406372070312,753.076904296875,622.930419921875
2023-12-11 13:29:43.063614,786.5201416015625,810.6959838867188,787.3259887695312,782.087890625,841.3186645507812
2023-12-11 13:29:43.079614,753.8828125,800.6226806640625,791.7582397460938,796.1904907226562,879.5970458984375
2023-12-11 13:29:43.109616,726.4835205078125,794.981689453125,788.5347900390625,761.94140625,816.3369750976562
2023-12-11 13:29:43.120619,738.974365234375,799.010986328125,781.2820434570312,743.4066162109375,642.6740112304688
2023-12-11 13:29:43.161616,772.0146484375,802.2344360351562,784.5054931640625,769.5970458984375,830.03662109375
2023-12-11 13:29:43.164615,789.3406372070312,805.054931640625,791.3552856445312,800.6226806640625,1011.3552856445312
2023-12-11 13:29:43.175619,801.4285888671875,811.5018310546875,793.3699340820312,796.996337890625,903.7728881835938
2023-12-11 13:29:43.199614,782.087890625,813.91943359375,790.5494384765625,774.8351440429688,898.5347900390625
2023-12-11 13:29:43.206614,783.6996459960938,810.2930297851562,787.7289428710938,784.5054931640625,693.8461303710938
2023-12-11 13:29:43.249618,801.025634765625,805.8607788085938,791.3552856445312,793.7728881835938,486.73992919921875
2023-12-11 13:29:43.257622,796.996337890625,799.8168334960938,796.996337890625,791.7582397460938,674.1025390625
2023-12-11 13:29:43.264615,791.7582397460938,801.8314819335938,794.5787353515625,803.4432373046875,904.5787353515625
2023-12-11 13:29:43.275614,770.0,805.8607788085938,787.3259887695312,798.6080322265625,796.5933837890625
2023-12-11 13:29:43.288620,758.3150024414062,806.2637329101562,785.7142944335938,776.8497924804688,623.7362670898438
2023-12-11 13:29:43.305616,783.6996459960938,806.2637329101562,784.5054931640625,772.0146484375,658.7911987304688
2023-12-11 13:29:43.310615,790.1465454101562,801.025634765625,784.5054931640625,788.937744140625,1036.7398681640625
2023-12-11 13:29:43.311617,778.8644409179688,800.6226806640625,787.7289428710938,810.2930297851562,1196.7032470703125
2023-12-11 13:29:43.311617,776.4468994140625,802.2344360351562,789.3406372070312,802.6373901367188,821.1721801757812
2023-12-11 13:29:43.312618,773.6264038085938,803.040283203125,789.3406372070312,776.4468994140625,607.2161254882812
2023-12-11 13:29:43.312618,767.1795043945312,797.8021850585938,789.3406372070312,778.8644409179688,610.03662109375
2023-12-11 13:29:43.313617,772.8204956054688,795.7875366210938,787.3259887695312,783.6996459960938,716.4102783203125
2023-12-11 13:29:43.318619,791.7582397460938,799.010986328125,786.1171875,784.5054931640625,825.2014770507812
2023-12-11 13:29:43.319623,779.6703491210938,801.8314819335938,790.1465454101562,784.1025390625,748.6447143554688
2023-12-11 13:29:43.320636,754.2857055664062,803.040283203125,788.1318969726562,759.120849609375,728.4981689453125
2023-12-11 13:29:43.320636,751.4652099609375,797.3992919921875,786.5201416015625,753.076904296875,753.8828125
2023-12-11 13:29:43.321617,768.7911987304688,794.1758422851562,788.5347900390625,772.8204956054688,788.1318969726562
2023-12-11 13:29:43.322616,785.3113403320312,794.1758422851562,794.5787353515625,804.2490844726562,1079.4505615234375
2023-12-11 13:29:43.322616,769.1941528320312,788.1318969726562,797.8021850585938,813.113525390625,1265.201416015625
2023-12-11 13:29:43.322616,743.4066162109375,785.7142944335938,786.5201416015625,761.1355590820312,903.3699340820312
2023-12-11 13:29:43.324616,748.6447143554688,792.967041015625,780.4761962890625,742.6007080078125,599.96337890625
2023-12-11 13:29:43.328616,778.05859375,797.3992919921875,789.7435913085938,794.1758422851562,756.7033081054688
2023-12-11 13:29:43.328616,811.098876953125,797.8021850585938,791.7582397460938,805.4578857421875,969.047607421875
2023-12-11 13:29:43.329616,796.996337890625,801.4285888671875,788.1318969726562,802.6373901367188,903.7728881835938
2023-12-11 13:29:43.332615,773.6264038085938,801.4285888671875,788.5347900390625,794.1758422851562,647.106201171875
2023-12-11 13:29:43.332615,780.0732421875,790.5494384765625,790.1465454101562,774.4322509765625,651.5384521484375
2023-12-11 13:29:43.335726,790.952392578125,789.3406372070312,787.3259887695312,787.7289428710938,793.7728881835938
2023-12-11 13:29:43.336629,805.4578857421875,794.5787353515625,782.893798828125,803.4432373046875,736.959716796875
2023-12-11 13:29:43.337618,804.2490844726562,791.7582397460938,784.5054931640625,815.5311279296875,731.3186645507812
2023-12-11 13:29:43.338617,785.7142944335938,792.1611938476562,785.7142944335938,811.5018310546875,729.7069702148438
2023-12-11 13:29:43.338617,782.4908447265625,793.3699340820312,787.3259887695312,789.7435913085938,658.3883056640625
2023-12-11 13:29:43.339615,791.7582397460938,793.7728881835938,792.5640869140625,792.967041015625,618.4981689453125
2023-12-11 13:29:43.339615,797.8021850585938,794.981689453125,789.3406372070312,812.3076782226562,717.2161254882812
2023-12-11 13:29:43.340616,794.5787353515625,796.996337890625,788.5347900390625,809.084228515625,979.120849609375
2023-12-11 13:29:43.340616,795.7875366210938,798.2051391601562,786.1171875,795.3846435546875,917.87548828125
2023-12-11 13:29:43.340616,788.937744140625,796.5933837890625,773.6264038085938,781.6849975585938,620.915771484375
2023-12-11 13:29:43.341615,775.6410522460938,795.3846435546875,778.8644409179688,776.0439453125,669.2673950195312
2023-12-11 13:29:43.341615,774.4322509765625,794.5787353515625,784.5054931640625,784.1025390625,867.106201171875
2023-12-11 13:29:43.342618,781.6849975585938,794.5787353515625,782.087890625,793.3699340820312,937.6190185546875
2023-12-11 13:29:43.342618,784.908447265625,794.981689453125,787.3259887695312,792.5640869140625,797.8021850585938
2023-12-11 13:29:43.342618,770.8058471679688,795.7875366210938,793.7728881835938,789.3406372070312,761.94140625
2023-12-11 13:29:43.343619,766.7765502929688,799.010986328125,802.6373901367188,793.7728881835938,882.8204956054688
2023-12-11 13:29:43.343619,770.4029541015625,798.6080322265625,801.025634765625,792.5640869140625,867.106201171875
2023-12-11 13:29:43.343619,784.1025390625,795.7875366210938,800.6226806640625,784.908447265625,694.6520385742188
2023-12-11 13:29:43.344616,784.5054931640625,798.2051391601562,802.2344360351562,780.4761962890625,701.5018310546875
2023-12-11 13:29:43.344616,772.8204956054688,798.2051391601562,798.6080322265625,790.5494384765625,790.952392578125
2023-12-11 13:29:43.345614,778.8644409179688,796.1904907226562,801.025634765625,796.5933837890625,666.8497924804688
2023-12-11 13:29:43.348617,775.6410522460938,795.7875366210938,798.6080322265625,787.3259887695312,605.6043701171875
2023-12-11 13:29:43.503619,766.7765502929688,798.2051391601562,794.981689453125,790.5494384765625,783.6996459960938
2023-12-11 13:29:43.590616,776.8497924804688,796.1904907226562,796.996337890625,794.981689453125,877.9853515625
2023-12-11 13:29:43.813618,789.7435913085938,794.981689453125,803.040283203125,802.2344360351562,841.3186645507812
2023-12-11 13:29:43.884621,793.7728881835938,795.3846435546875,800.2197875976562,805.4578857421875,815.93408203125
2023-12-11 13:29:43.939616,798.6080322265625,794.981689453125,801.8314819335938,805.8607788085938,733.3333129882812
2023-12-11 13:29:43.953622,790.1465454101562,796.1904907226562,807.069580078125,805.4578857421875,786.5201416015625
2023-12-11 13:29:43.977615,786.923095703125,798.2051391601562,811.5018310546875,801.025634765625,868.7179565429688
2023-12-11 13:29:43.984641,792.967041015625,801.4285888671875,815.5311279296875,810.6959838867188,881.6116943359375
2023-12-11 13:29:43.995622,791.3552856445312,799.8168334960938,809.89013671875,823.5897216796875,1048.827880859375
2023-12-11 13:29:44.024616,803.4432373046875,799.010986328125,809.89013671875,822.7838745117188,1095.970703125
2023-12-11 13:29:44.037618,800.6226806640625,800.2197875976562,813.91943359375,829.2307739257812,744.2124633789062
2023-12-11 13:29:44.050625,785.3113403320312,800.2197875976562,810.2930297851562,818.3516235351562,725.2747192382812
2023-12-11 13:29:44.114627,778.8644409179688,800.6226806640625,804.6520385742188,788.5347900390625,880.4029541015625
2023-12-11 13:29:44.122622,762.7472534179688,796.5933837890625,805.054931640625,788.1318969726562,806.2637329101562
2023-12-11 13:29:44.127623,763.9560546875,792.5640869140625,807.4725341796875,794.981689453125,693.4432373046875
2023-12-11 13:29:44.138615,769.1941528320312,792.1611938476562,803.4432373046875,796.1904907226562,730.915771484375
2023-12-11 13:29:44.155613,768.3883056640625,793.7728881835938,802.2344360351562,804.6520385742188,753.8828125
2023-12-11 13:29:44.177631,774.4322509765625,795.7875366210938,801.8314819335938,812.3076782226562,821.5750732421875
2023-12-11 13:29:44.203618,770.0,796.5933837890625,803.4432373046875,805.054931640625,763.9560546875
2023-12-11 13:29:44.222615,775.6410522460938,797.8021850585938,811.5018310546875,800.6226806640625,751.4652099609375
2023-12-11 13:29:44.233674,784.908447265625,797.8021850585938,815.93408203125,805.8607788085938,891.6849975585938
2023-12-11 13:29:44.245615,768.7911987304688,794.5787353515625,805.4578857421875,792.1611938476562,803.040283203125
2023-12-11 13:29:44.261619,774.029296875,790.952392578125,800.6226806640625,794.5787353515625,781.6849975585938
2023-12-11 13:29:44.293620,775.2380981445312,790.1465454101562,798.2051391601562,791.7582397460938,921.90478515625
2023-12-11 13:29:44.342616,766.3735961914062,790.5494384765625,797.3992919921875,789.7435913085938,861.062255859375
2023-12-11 13:29:44.376618,767.5823974609375,792.967041015625,805.8607788085938,802.2344360351562,666.0439453125
2023-12-11 13:29:44.379615,778.4615478515625,794.5787353515625,809.4871826171875,801.8314819335938,730.5128173828125
2023-12-11 13:29:44.391618,793.3699340820312,792.5640869140625,806.2637329101562,813.91943359375,857.032958984375
2023-12-11 13:29:44.409620,791.7582397460938,800.6226806640625,807.87548828125,840.10986328125,845.3479614257812
2023-12-11 13:29:44.417659,776.8497924804688,800.2197875976562,808.2783813476562,819.1575317382812,784.5054931640625
2023-12-11 13:29:44.434619,780.4761962890625,796.996337890625,804.2490844726562,788.5347900390625,701.5018310546875
2023-12-11 13:29:44.447614,788.1318969726562,802.6373901367188,805.4578857421875,806.6666870117188,831.6483764648438
2023-12-11 13:29:44.464613,780.0732421875,799.8168334960938,806.2637329101562,806.2637329101562,985.970703125
2023-12-11 13:29:44.488619,782.4908447265625,799.4139404296875,808.2783813476562,801.025634765625,900.5494384765625
2023-12-11 13:29:44.500621,795.3846435546875,801.8314819335938,808.6813354492188,806.2637329101562,877.9853515625
2023-12-11 13:29:44.517669,796.996337890625,799.8168334960938,805.4578857421875,794.981689453125,742.6007080078125
2023-12-11 13:29:44.571618,780.4761962890625,800.6226806640625,805.4578857421875,800.2197875976562,669.6703491210938
2023-12-11 13:29:44.575622,767.1795043945312,801.4285888671875,803.040283203125,807.87548828125,698.6813354492188
2023-12-11 13:29:44.581612,786.923095703125,799.010986328125,796.5933837890625,796.5933837890625,762.7472534179688
2023-12-11 13:29:44.593619,806.2637329101562,800.6226806640625,793.3699340820312,790.5494384765625,778.05859375
2023-12-11 13:29:44.613615,795.7875366210938,796.996337890625,797.8021850585938,788.5347900390625,719.2307739257812
2023-12-11 13:29:44.624615,782.087890625,790.952392578125,799.4139404296875,791.3552856445312,698.2783813476562
2023-12-11 13:29:44.633624,773.2234497070312,799.010986328125,795.3846435546875,795.7875366210938,896.1171875
2023-12-11 13:29:44.660614,783.2966918945312,799.8168334960938,797.3992919921875,805.8607788085938,1198.3150634765625
2023-12-11 13:29:44.669622,786.1171875,795.7875366210938,797.3992919921875,808.2783813476562,1076.6300048828125
2023-12-11 13:29:44.696619,794.5787353515625,797.3992919921875,791.3552856445312,804.2490844726562,711.97802734375
2023-12-11 13:29:44.711617,792.967041015625,795.3846435546875,794.1758422851562,802.2344360351562,674.908447265625
2023-12-11 13:29:44.731614,770.4029541015625,794.5787353515625,802.2344360351562,797.3992919921875,723.6630249023438
2023-12-11 13:29:44.741619,774.029296875,795.3846435546875,799.010986328125,799.4139404296875,705.1282348632812
2023-12-11 13:29:44.751620,779.2673950195312,794.5787353515625,792.967041015625,798.2051391601562,685.7875366210938
2023-12-11 13:29:44.774618,788.5347900390625,795.7875366210938,796.1904907226562,792.5640869140625,710.3662719726562
2023-12-11 13:29:44.828616,794.981689453125,794.981689453125,796.996337890625,790.1465454101562,655.970703125
2023-12-11 13:29:44.830614,797.3992919921875,794.981689453125,790.5494384765625,784.1025390625,620.5128173828125
2023-12-11 13:29:44.843620,795.3846435546875,794.1758422851562,791.3552856445312,785.3113403320312,838.4981689453125
2023-12-11 13:29:44.851619,791.7582397460938,793.7728881835938,794.5787353515625,801.4285888671875,1056.886474609375
2023-12-11 13:29:44.862612,780.0732421875,794.981689453125,795.3846435546875,799.4139404296875,978.3150024414062
2023-12-11 13:29:44.880622,769.1941528320312,792.1611938476562,800.2197875976562,775.6410522460938,711.1721801757812
2023-12-11 13:29:44.894617,780.879150390625,795.3846435546875,802.2344360351562,785.3113403320312,736.959716796875
2023-12-11 13:29:44.906614,792.967041015625,797.3992919921875,794.981689453125,808.2783813476562,933.5897216796875
2023-12-11 13:29:44.916619,793.3699340820312,796.5933837890625,789.3406372070312,799.4139404296875,861.8681030273438
2023-12-11 13:29:44.983650,774.8351440429688,797.8021850585938,786.923095703125,781.6849975585938,672.087890625
2023-12-11 13:29:44.986619,772.0146484375,792.967041015625,788.5347900390625,787.3259887695312,628.1685180664062
2023-12-11 13:29:44.993625,779.2673950195312,789.3406372070312,794.5787353515625,797.8021850585938,718.8278198242188
2023-12-11 13:29:45.001617,790.952392578125,794.981689453125,804.2490844726562,798.6080322265625,765.5677490234375
2023-12-11 13:29:45.013615,799.8168334960938,795.7875366210938,804.2490844726562,790.5494384765625,611.6483764648438
2023-12-11 13:29:45.027615,794.1758422851562,790.952392578125,797.3992919921875,790.5494384765625,716.8131713867188
2023-12-11 13:29:45.042616,775.6410522460938,793.7728881835938,795.3846435546875,790.5494384765625,931.1721801757812
2023-12-11 13:29:45.068615,774.029296875,794.981689453125,795.3846435546875,804.6520385742188,827.2161254882812
2023-12-11 13:29:45.079620,786.5201416015625,797.8021850585938,800.2197875976562,818.3516235351562,690.6226806640625
2023-12-11 13:29:45.104620,795.7875366210938,801.8314819335938,809.4871826171875,827.2161254882812,854.2124633789062
2023-12-11 13:29:45.127614,785.7142944335938,799.010986328125,805.8607788085938,814.3223266601562,937.2161254882812
2023-12-11 13:29:45.142618,781.6849975585938,795.7875366210938,792.1611938476562,790.5494384765625,755.091552734375
2023-12-11 13:29:45.199621,796.996337890625,795.7875366210938,783.6996459960938,776.8497924804688,709.5604248046875
2023-12-11 13:29:45.202618,805.8607788085938,796.5933837890625,782.087890625,773.2234497070312,916.2637329101562
2023-12-11 13:29:45.206640,807.069580078125,798.2051391601562,783.2966918945312,794.5787353515625,1232.967041015625
2023-12-11 13:29:45.216665,792.967041015625,794.5787353515625,789.3406372070312,790.1465454101562,1006.923095703125
2023-12-11 13:29:45.230615,795.3846435546875,794.5787353515625,793.7728881835938,776.8497924804688,764.3589477539062
2023-12-11 13:29:45.290617,785.3113403320312,795.3846435546875,799.8168334960938,782.893798828125,935.6043701171875
2023-12-11 13:29:45.294619,784.5054931640625,796.5933837890625,801.4285888671875,789.3406372070312,936.00732421875
2023-12-11 13:29:45.296617,783.2966918945312,798.2051391601562,795.7875366210938,790.5494384765625,846.5567626953125
2023-12-11 13:29:45.308615,769.1941528320312,796.5933837890625,795.3846435546875,794.5787353515625,821.97802734375
2023-12-11 13:29:45.324617,786.923095703125,796.1904907226562,798.6080322265625,775.2380981445312,815.1282348632812
2023-12-11 13:29:45.343614,790.952392578125,794.1758422851562,794.981689453125,768.3883056640625,852.6007080078125
2023-12-11 13:29:45.360614,777.2527465820312,793.7728881835938,790.5494384765625,792.1611938476562,777.2527465820312
2023-12-11 13:29:45.408619,784.5054931640625,795.3846435546875,796.1904907226562,795.7875366210938,747.032958984375
2023-12-11 13:29:45.411615,800.2197875976562,795.3846435546875,802.2344360351562,789.7435913085938,916.6666870117188
2023-12-11 13:29:45.418621,788.5347900390625,797.3992919921875,800.2197875976562,783.2966918945312,828.4249267578125
2023-12-11 13:29:45.430616,778.4615478515625,797.3992919921875,797.3992919921875,778.4615478515625,555.6410522460938
2023-12-11 13:29:45.445614,783.6996459960938,793.7728881835938,796.996337890625,792.5640869140625,795.3846435546875
2023-12-11 13:29:45.461614,784.5054931640625,788.1318969726562,794.1758422851562,804.2490844726562,965.018310546875
2023-12-11 13:29:45.479616,807.4725341796875,784.908447265625,792.1611938476562,806.2637329101562,812.7106323242188
2023-12-11 13:29:45.495615,824.7985229492188,790.5494384765625,792.1611938476562,798.6080322265625,644.2857055664062
2023-12-11 13:29:45.513620,805.4578857421875,794.1758422851562,792.1611938476562,797.3992919921875,628.5714111328125
2023-12-11 13:29:45.529616,792.967041015625,793.3699340820312,797.8021850585938,813.91943359375,907.3992919921875
2023-12-11 13:29:45.545618,796.5933837890625,793.3699340820312,801.4285888671875,815.1282348632812,896.5201416015625
2023-12-11 13:29:45.564618,803.8461303710938,790.5494384765625,796.996337890625,802.2344360351562,708.7545776367188
2023-12-11 13:29:45.629621,815.93408203125,786.923095703125,796.1904907226562,797.3992919921875,691.4285888671875
2023-12-11 13:29:45.633621,808.2783813476562,786.1171875,796.1904907226562,786.1171875,789.7435913085938
2023-12-11 13:29:45.639620,792.967041015625,786.1171875,789.7435913085938,781.6849975585938,819.96337890625
2023-12-11 13:29:45.647620,807.4725341796875,790.952392578125,781.6849975585938,803.4432373046875,851.3919677734375
2023-12-11 13:29:45.660615,809.084228515625,782.4908447265625,790.1465454101562,813.5164794921875,833.6630249023438
2023-12-11 13:29:45.682621,787.3259887695312,773.6264038085938,796.996337890625,797.8021850585938,799.4139404296875
2023-12-11 13:29:45.716618,784.1025390625,778.4615478515625,797.3992919921875,793.3699340820312,709.96337890625
2023-12-11 13:29:45.762614,782.087890625,776.4468994140625,805.054931640625,799.4139404296875,672.893798828125
2023-12-11 13:29:45.766621,781.2820434570312,767.9853515625,806.2637329101562,796.5933837890625,831.6483764648438
2023-12-11 13:29:45.770617,790.5494384765625,766.7765502929688,808.2783813476562,799.010986328125,850.5860595703125
2023-12-11 13:29:45.789618,782.087890625,774.029296875,817.1428833007812,799.4139404296875,709.96337890625
2023-12-11 13:29:45.809615,760.3296508789062,775.2380981445312,818.7545776367188,787.7289428710938,609.2307739257812
2023-12-11 13:29:45.851618,764.7619018554688,773.6264038085938,813.5164794921875,787.3259887695312,871.1355590820312
2023-12-11 13:29:45.855620,776.8497924804688,769.5970458984375,812.3076782226562,807.4725341796875,952.930419921875
2023-12-11 13:29:45.859617,781.2820434570312,766.3735961914062,810.2930297851562,812.3076782226562,644.6886596679688
2023-12-11 13:29:45.872618,778.05859375,772.4176025390625,807.87548828125,799.4139404296875,682.1611938476562
2023-12-11 13:29:45.893615,786.5201416015625,778.4615478515625,806.6666870117188,789.7435913085938,833.2600708007812
2023-12-11 13:29:45.909615,787.7289428710938,781.2820434570312,803.040283203125,799.010986328125,730.915771484375
2023-12-11 13:29:45.923614,780.4761962890625,777.2527465820312,796.996337890625,810.2930297851562,696.2637329101562
2023-12-11 13:29:45.934618,785.7142944335938,775.6410522460938,795.3846435546875,806.6666870117188,841.7216186523438
2023-12-11 13:29:45.960615,791.7582397460938,772.4176025390625,802.2344360351562,807.4725341796875,837.6923217773438
2023-12-11 13:29:45.975658,788.5347900390625,767.9853515625,805.8607788085938,799.8168334960938,629.7802124023438
2023-12-11 13:29:46.009617,786.923095703125,770.8058471679688,801.8314819335938,797.3992919921875,622.5274658203125
2023-12-11 13:29:46.028615,797.3992919921875,770.8058471679688,794.5787353515625,809.4871826171875,925.1282348632812
2023-12-11 13:29:46.043614,803.4432373046875,768.3883056640625,793.3699340820312,821.1721801757812,1117.3260498046875
2023-12-11 13:29:46.051621,799.4139404296875,775.6410522460938,796.1904907226562,821.97802734375,839.7069702148438
2023-12-11 13:29:46.061612,798.2051391601562,782.4908447265625,795.7875366210938,814.3223266601562,699.4871826171875
2023-12-11 13:29:46.083621,780.879150390625,779.6703491210938,795.3846435546875,805.8607788085938,778.8644409179688
2023-12-11 13:29:46.109621,767.9853515625,771.6116943359375,796.5933837890625,806.2637329101562,761.5384521484375
2023-12-11 13:29:46.144615,775.6410522460938,769.1941528320312,797.8021850585938,794.981689453125,754.2857055664062
2023-12-11 13:29:46.160614,784.908447265625,770.8058471679688,794.1758422851562,795.7875366210938,869.9267578125
2023-12-11 13:29:46.172622,795.7875366210938,773.2234497070312,793.3699340820312,793.3699340820312,887.6557006835938
2023-12-11 13:29:46.185616,801.025634765625,774.4322509765625,790.1465454101562,790.5494384765625,767.5823974609375
2023-12-11 13:29:46.210616,801.025634765625,772.8204956054688,787.7289428710938,809.89013671875,852.6007080078125
2023-12-11 13:29:46.211616,806.2637329101562,772.8204956054688,795.3846435546875,828.4249267578125,889.6703491210938
2023-12-11 13:29:46.211616,816.7399291992188,774.4322509765625,798.6080322265625,842.930419921875,954.1392211914062
2023-12-11 13:29:46.216620,813.91943359375,775.2380981445312,794.5787353515625,826.00732421875,970.2564086914062
2023-12-11 13:29:46.217621,810.2930297851562,772.8204956054688,789.3406372070312,816.7399291992188,851.7948608398438
2023-12-11 13:29:46.217621,812.7106323242188,772.8204956054688,787.3259887695312,829.6337280273438,814.7252807617188
2023-12-11 13:29:46.218622,800.2197875976562,776.0439453125,792.5640869140625,839.7069702148438,855.018310546875
2023-12-11 13:29:46.218622,801.8314819335938,776.4468994140625,793.3699340820312,837.2893676757812,806.6666870117188
2023-12-11 13:29:46.219621,813.113525390625,779.6703491210938,796.1904907226562,830.03662109375,623.7362670898438
2023-12-11 13:29:46.219621,804.6520385742188,779.2673950195312,797.3992919921875,813.91943359375,662.0146484375
2023-12-11 13:29:46.220623,795.3846435546875,773.6264038085938,791.7582397460938,815.5311279296875,940.4395751953125
2023-12-11 13:29:46.220623,801.8314819335938,774.029296875,789.7435913085938,817.94873046875,910.2197875976562
2023-12-11 13:29:46.220623,806.6666870117188,777.6557006835938,789.3406372070312,807.069580078125,677.3259887695312
2023-12-11 13:29:46.221615,793.3699340820312,778.05859375,784.1025390625,800.6226806640625,774.029296875
2023-12-11 13:29:46.222620,792.967041015625,781.6849975585938,778.8644409179688,793.3699340820312,702.3076782226562
2023-12-11 13:29:46.559618,794.5787353515625,782.087890625,780.879150390625,797.3992919921875,642.2710571289062
2023-12-11 13:29:46.566623,790.5494384765625,776.0439453125,781.2820434570312,797.3992919921875,766.7765502929688
2023-12-11 13:29:46.574617,785.7142944335938,772.8204956054688,781.6849975585938,792.5640869140625,756.7033081054688
2023-12-11 13:29:46.592614,769.5970458984375,774.029296875,782.087890625,795.7875366210938,682.1611938476562
2023-12-11 13:29:46.620617,775.6410522460938,776.8497924804688,778.4615478515625,779.2673950195312,608.8278198242188
2023-12-11 13:29:46.632621,784.5054931640625,776.8497924804688,777.2527465820312,776.0439453125,694.2490844726562
2023-12-11 13:29:46.640618,794.5787353515625,778.8644409179688,777.2527465820312,804.6520385742188,1033.5164794921875
2023-12-11 13:29:46.666620,798.2051391601562,780.879150390625,778.4615478515625,817.1428833007812,1064.5421142578125
2023-12-11 13:29:46.677614,778.05859375,780.4761962890625,772.4176025390625,807.069580078125,723.6630249023438
2023-12-11 13:29:46.707614,786.1171875,779.6703491210938,768.3883056640625,795.3846435546875,671.2820434570312
2023-12-11 13:29:46.727614,795.7875366210938,773.6264038085938,770.8058471679688,801.8314819335938,807.069580078125
2023-12-11 13:29:46.776615,794.5787353515625,774.8351440429688,768.3883056640625,811.90478515625,862.2710571289062
2023-12-11 13:29:46.799621,795.3846435546875,777.2527465820312,767.5823974609375,812.3076782226562,813.113525390625
2023-12-11 13:29:46.803614,802.2344360351562,775.2380981445312,770.0,809.084228515625,720.8424682617188
2023-12-11 13:29:46.810617,813.91943359375,774.8351440429688,769.1941528320312,805.054931640625,778.4615478515625
2023-12-11 13:29:46.821619,804.6520385742188,775.2380981445312,766.3735961914062,797.3992919921875,782.087890625
2023-12-11 13:29:46.837614,796.996337890625,771.2088012695312,761.5384521484375,794.981689453125,684.1758422851562
2023-12-11 13:29:46.844614,788.937744140625,768.7911987304688,759.5238037109375,813.91943359375,786.1171875
2023-12-11 13:29:46.862615,772.4176025390625,774.8351440429688,762.3442993164062,815.5311279296875,900.952392578125
2023-12-11 13:29:46.876614,784.908447265625,776.0439453125,761.1355590820312,782.087890625,733.7362670898438
2023-12-11 13:29:46.889616,783.2966918945312,770.8058471679688,763.1502075195312,774.029296875,704.3223266601562
2023-12-11 13:29:46.919619,783.6996459960938,772.0146484375,763.5531005859375,784.1025390625,859.047607421875
2023-12-11 13:29:46.935617,785.7142944335938,773.2234497070312,765.5677490234375,788.1318969726562,854.6153564453125
2023-12-11 13:29:46.959614,782.4908447265625,773.6264038085938,772.0146484375,796.5933837890625,752.2710571289062
2023-12-11 13:29:47.019617,779.6703491210938,775.6410522460938,774.8351440429688,795.3846435546875,764.7619018554688
2023-12-11 13:29:47.021615,763.9560546875,771.6116943359375,773.2234497070312,789.3406372070312,922.3076782226562
2023-12-11 13:29:47.028615,768.7911987304688,767.9853515625,772.4176025390625,793.3699340820312,957.3626098632812
2023-12-11 13:29:47.037614,792.1611938476562,770.0,774.4322509765625,803.4432373046875,776.4468994140625
2023-12-11 13:29:47.048620,782.4908447265625,770.8058471679688,773.6264038085938,802.2344360351562,814.3223266601562
2023-12-11 13:29:47.066617,787.3259887695312,770.8058471679688,777.6557006835938,801.025634765625,971.4652099609375
2023-12-11 13:29:47.079620,802.2344360351562,774.8351440429688,781.2820434570312,808.6813354492188,1094.761962890625
2023-12-11 13:29:47.095614,790.5494384765625,779.2673950195312,782.4908447265625,826.8131713867188,933.1868286132812
2023-12-11 13:29:47.120617,807.87548828125,780.0732421875,784.5054931640625,839.3040161132812,757.106201171875
2023-12-11 13:29:47.142614,796.5933837890625,775.6410522460938,779.2673950195312,826.4102783203125,766.3735961914062
2023-12-11 13:29:47.159614,784.1025390625,771.2088012695312,778.05859375,814.7252807617188,734.5421142578125
2023-12-11 13:29:47.165619,799.4139404296875,767.9853515625,783.2966918945312,810.2930297851562,675.7142944335938
2023-12-11 13:29:47.166619,817.5457763671875,774.4322509765625,788.5347900390625,805.8607788085938,778.8644409179688
2023-12-11 13:29:47.171616,806.2637329101562,779.6703491210938,793.3699340820312,813.113525390625,899.3406372070312
2023-12-11 13:29:47.171616,796.1904907226562,775.6410522460938,792.967041015625,813.5164794921875,794.1758422851562
2023-12-11 13:29:47.172616,806.2637329101562,772.0146484375,784.908447265625,791.3552856445312,685.7875366210938
2023-12-11 13:29:47.172616,793.3699340820312,772.8204956054688,781.6849975585938,788.5347900390625,813.113525390625
2023-12-11 13:29:47.172616,794.981689453125,775.6410522460938,782.4908447265625,804.2490844726562,981.1355590820312
2023-12-11 13:29:47.173615,800.6226806640625,777.2527465820312,786.1171875,800.6226806640625,832.05126953125
2023-12-11 13:29:47.173615,776.0439453125,778.8644409179688,785.3113403320312,788.5347900390625,732.12451171875
2023-12-11 13:29:47.174615,787.7289428710938,776.8497924804688,782.4908447265625,776.0439453125,856.2271118164062
2023-12-11 13:29:47.174615,798.2051391601562,775.2380981445312,786.923095703125,788.937744140625,1002.4908447265625
2023-12-11 13:29:47.174615,767.1795043945312,774.8351440429688,788.5347900390625,799.010986328125,826.00732421875
2023-12-11 13:29:47.175615,757.5091552734375,773.2234497070312,790.1465454101562,798.6080322265625,711.97802734375
2023-12-11 13:29:47.178615,783.2966918945312,774.4322509765625,791.3552856445312,805.054931640625,955.3479614257812
