Timestamp,TP9,AF7,AF8,TP10
2023-12-11 14:12:34.739150,0.0024888717429751,0.0023861873815382,-0.0025612558185164,0.0050930250291382
2023-12-11 14:12:34.826167,0.0025216030657236,0.0024595176488389,-0.0023093468885247,0.0051127397011603
2023-12-11 14:12:35.061151,0.0025551892322048,0.00253476308223,-0.002050858854728,0.005132969261137
2023-12-11 14:12:35.375157,0.002589610011368,0.0026118783566763,-0.0017859474206524,0.0051537015235378
2023-12-11 14:12:35.484149,0.0026248446694228,0.0026908170208198,-0.00151477215904,0.0051749240000231
2023-12-11 14:12:35.663156,0.0026608719823289,0.0027715315249609,-0.0012374964157286,0.0051966239069666
2023-12-11 14:12:36.078153,0.00269767024858,0.0028539732497006,-0.0009542872112579,0.0052187881731558
2023-12-11 14:12:36.764148,0.0027352173022765,0.0029380925352265,-0.0006653151402628,0.0052414034476655
2023-12-11 14:12:37.274154,0.0027734905264772,0.0030238387112264,-0.0003707542687136,0.0052644561079
2023-12-11 14:12:37.510155,0.002812466866823,0.0031111601274102,-7.078202906490035e-05,0.0052879322677987
2023-12-11 14:12:37.534155,0.002852122845424,0.0032000041846219,0.0002344208866228,0.0053118177862008
2023-12-11 14:12:37.957158,0.0028924345750014,0.0032903173665235,0.0005446706355254,0.0053360982753631
2023-12-11 14:12:38.256153,0.0029333777732766,0.0033820452718313,0.0008597803347951,0.0053607591096268
2023-12-11 14:12:38.422153,0.0029749277775981,0.0034751326470851,0.0011795601741319,0.0053857854342275
2023-12-11 14:12:38.820154,0.0030170595597969,0.0035695234199308,0.0015038175301177,0.0054111621742431
2023-12-11 14:12:39.272157,0.0030597477412627,0.0036651607328963,0.0018323570822462,0.0054368740436743
2023-12-11 14:12:39.322157,0.0031029666082312,0.0037619869776403,0.0021649809305759,0.0054629055546523
2023-12-11 14:12:39.370153,0.0031466901272732,0.0038599438296537,0.0025014887149384,0.0054892410267684
2023-12-11 14:12:39.446151,0.0031908919609756,0.0039589722833916,0.0028416777356271,0.0055158645965188
2023-12-11 14:12:40.323156,0.0032355454838066,0.0040590126878164,0.0031853430754964,0.0055427602268607
2023-12-11 14:12:40.381153,0.0032806237981537,0.0041600047823292,0.0035322777233961,0.005569911716872
2023-12-11 14:12:40.997833,0.0033260997505261,0.0042618877330687,0.003882272698867,0.0055973027115105
2023-12-11 14:12:41.072831,0.0033719459479103,0.0043646001695548,0.0042351171780231,0.0056249167114651
2023-12-11 14:12:41.218831,0.0034181347742715,0.0044680802216567,0.0045905986205437,0.0056527370830949
2023-12-11 14:12:41.628871,0.0034646384071878,0.0045722655568602,0.0049485028977003,0.0056807470684482
2023-12-11 14:12:41.660834,0.0035114288346095,0.0046770934178151,0.0053086144213392,0.0057089297953573
2023-12-11 14:12:41.767836,0.0035584778717328,0.0047825006601379,0.005670716273744,0.0057372682876012
2023-12-11 14:12:41.802839,0.003605757177977,0.0048884237904471,0.0060345903382986,0.0057657454751319
2023-12-11 14:12:41.916833,0.0036532382740558,0.0049947990046097,0.0064000174308726,0.0057943442043564
2023-12-11 14:12:42.500833,0.0037008925591326,0.0051015622261745,0.0067667774318498,0.0058230472484697
2023-12-11 14:12:42.748834,0.0037486913280478,0.0052086491449688,0.0071346494187196,0.0058518373178312
2023-12-11 14:12:43.250868,0.0037966057886103,0.005315995255837,0.0075034117991527,0.0058806970703797
2023-12-11 14:12:43.406869,0.0038446070789408,0.0054235358974959,0.00787284244448,0.0059096091220794
2023-12-11 14:12:43.810874,0.0038926662848568,0.005531206291484,0.0082427188234947,0.0059385560573914
2023-12-11 14:12:43.983844,0.0039407544572897,0.0056389415811822,0.0086128181364967,0.0059675204397643
2023-12-11 14:12:44.105836,0.0039888426297227,0.0057466768708804,0.0089829174494987,0.0059964848221372
2023-12-11 14:12:44.231838,0.0040369018356387,0.0058543472648686,0.0093527938285134,0.0060254317574492
2023-12-11 14:12:44.545832,0.0040849031259692,0.0059618879065275,0.0097222244738407,0.0060543438091489
2023-12-11 14:12:44.854832,0.0041328175865317,0.0060692340173957,0.0100909868542738,0.0060832035616974
2023-12-11 14:12:45.105837,0.0041806163554469,0.00617632093619,0.0104588588411435,0.0061119936310589
2023-12-11 14:12:45.791838,0.0042282706405236,0.0062830841577547,0.0108256188421207,0.0061406966751722
2023-12-11 14:12:46.479832,0.0042757517366025,0.0063894593719174,0.0111910459346948,0.0061692954043967
2023-12-11 14:12:46.567835,0.0043230310428467,0.0064953825022266,0.0115549199992494,0.0061977725919274
2023-12-11 14:12:46.680835,0.00437008007997,0.0066007897445493,0.0119170218516542,0.0062261110841714
2023-12-11 14:12:46.737833,0.0044168705073917,0.0067056176055043,0.0122771333752931,0.0062542938110804
2023-12-11 14:12:46.823873,0.004463374140308,0.0068098029407078,0.0126350376524496,0.0062823037964338
2023-12-11 14:12:46.871864,0.0045095629666692,0.0069132829928096,0.0129905190949703,0.0063101241680635
2023-12-11 14:12:46.937834,0.0045554091640534,0.0070159954292958,0.0133433635741264,0.0063377381680182
2023-12-11 14:12:47.136834,0.0046008851164258,0.0071178783800352,0.0136933585495973,0.0063651291626566
2023-12-11 14:12:47.509832,0.0046459634307729,0.007218870474548,0.014040293197497,0.006392280652668
2023-12-11 14:12:47.636833,0.0046906169536039,0.0073189108789728,0.0143839585373663,0.0064191762830098
2023-12-11 14:12:47.696836,0.0047348187873063,0.0074179393327107,0.014724147558055,0.0064457998527603
2023-12-11 14:12:47.976833,0.0047785423063482,0.0075158961847241,0.0150606553424175,0.0064721353248763
2023-12-11 14:12:48.020838,0.0048217611733168,0.0076127224294682,0.0153932791907472,0.0064981668358543
2023-12-11 14:12:48.194843,0.0048644493547826,0.0077083597424337,0.0157218187428757,0.0065238787052855
2023-12-11 14:12:48.346869,0.0049065811369814,0.0078027505152793,0.0160460760988615,0.0065492554453011
2023-12-11 14:12:48.537834,0.0049481311413028,0.0078958378905331,0.0163658559381982,0.0065742817699018
2023-12-11 14:12:48.973877,0.0049890743395781,0.007987565795841,0.016680965637468,0.0065989426041655
2023-12-11 14:12:49.042846,0.0050293860691555,0.0080778789777426,0.0169912153863706,0.0066232230933278
2023-12-11 14:12:49.891872,0.0050690420477564,0.0081667230349543,0.0172964183020583,0.0066471086117299
2023-12-11 14:12:50.018873,0.0051080183881023,0.0082540444511381,0.0175963905417071,0.0066705847716286
2023-12-11 14:12:50.427839,0.005146291612303,0.008339790627138,0.0178909514132563,0.0066936374318631
2023-12-11 14:12:50.705832,0.0051838386659995,0.0084239099126639,0.0181799234842514,0.0067162527063728
2023-12-11 14:12:51.092839,0.0052206369322506,0.0085063516374035,0.0184631326887221,0.006738416972562
2023-12-11 14:12:51.194832,0.0052566642451566,0.0085870661415447,0.0187404084320335,0.0067601168795055
2023-12-11 14:12:51.423840,0.0052918989032115,0.0086660048056882,0.0190115836936459,0.0067813393559908
2023-12-11 14:12:51.650834,0.0053263196823747,0.0087431200801344,0.0192764951277215,0.0068020716183916
2023-12-11 14:12:51.811834,0.0053599058488559,0.0088183655135256,0.0195349831615182,0.0068223011783683
2023-12-11 14:12:51.914869,0.0053926371716044,0.0088916957808262,0.0197868920915099,0.0068420158503904
2023-12-11 14:12:51.946838,0.0054244939344951,0.0089630667106253,0.0200320701771766,0.0068612037590766
2023-12-11 14:12:52.095835,0.0054554569482053,0.0090324353117435,0.0202703697324074,0.0068798533463482
2023-12-11 14:12:52.197838,0.0054855075617734,0.0090997597991292,0.0205016472144607,0.0068979533783913
2023-12-11 14:12:52.361831,0.0055146276738334,0.0091649996190288,0.0207257633104294,0.0069154929524232
2023-12-11 14:12:52.614831,0.0055427997435187,0.0092281154734143,0.0209425830211575,0.0069324615032604
2023-12-11 14:12:53.163834,0.0055700068010278,0.0092890693436548,0.0211519757425587,0.0069488488096825
2023-12-11 14:12:53.523836,0.0055962324578468,0.0093478245134184,0.0213538153442873,0.0069646450005888
2023-12-11 14:12:53.746832,0.0056214609166205,0.0094043455907876,0.0215479802457145,0.0069798405609445
2023-12-11 14:12:54.313835,0.0056456769806688,0.009458598529579,0.0217343534891639,0.0069944263375123
2023-12-11 14:12:54.532830,0.0056688660631402,0.0095105506498508,0.0219128228103628,0.0070083935443658
2023-12-11 14:12:55.168955,0.0056910141957985,0.0095601706575885,0.0220832807060653,0.0070217337681819
2023-12-11 14:12:55.464952,0.0057121080374367,0.0096074286635547,0.0222456244988089,0.0070344389733084
2023-12-11 14:12:55.535961,0.0057321348819134,0.0096522962012938,0.0223997563987633,0.0070465015066051
2023-12-11 14:12:55.790955,0.0057510826658064,0.0096947462442787,0.0225455835626354,0.0070579141020527
2023-12-11 14:12:55.919959,0.005768939975679,0.0097347532221909,0.0226830181495945,0.0070686698851307
2023-12-11 14:12:56.102959,0.0057856960549557,0.0097722930363228,0.0228119773741843,0.0070787623769573
2023-12-11 14:12:56.511239,0.0058013408104007,0.0098073430740941,0.02293238355619,0.0070881854981931
2023-12-11 14:12:56.617244,0.0058158648181984,0.0098398822226726,0.02304416416743,0.007096933572702
2023-12-11 14:12:57.229242,0.0058292593296296,0.009869890881692,0.0231472518754438,0.007105001330971
2023-12-11 14:12:57.316273,0.0058415162763415,0.0098973509750581,0.0232415845840507,0.0071123839132844
2023-12-11 14:12:57.974245,0.0058526282752076,0.0099222459618376,0.0233271054707544,0.0071190768726506
2023-12-11 14:12:58.017245,0.0058625886327753,0.0099445608462212,0.0234037630209705,0.007125076177481
2023-12-11 14:12:58.501245,0.0058713913492978,0.009964282186557,0.0234715110590574,0.0071303782140188
2023-12-11 14:12:58.684242,0.0058790311223477,0.0099813981034471,0.02353030877613,0.0071349797885155
2023-12-11 14:12:58.985244,0.0058855033500114,0.009995898286903,0.0235801207546421,0.0071388781291546
2023-12-11 14:12:59.028243,0.0058908041336609,0.0100077740025566,0.0236209169897206,0.0071420708877215
2023-12-11 14:12:59.133271,0.0058949302803025,0.0100170180969206,0.0236526729072389,0.0071445561410178
2023-12-11 14:12:59.400238,0.0058978793044996,0.0100236250016984,0.0236753693786197,0.0071463323920199
2023-12-11 14:12:59.551242,0.0058996494298704,0.0100275907371376,0.0236889927323573,0.0071473985707805
2023-12-11 14:12:59.948244,0.0067641783851711,0.0094849196959798,0.021267432816922,0.0070244721828791
2023-12-11 14:13:00.223239,0.0067650843876069,0.009482655435316,0.021258689281881,0.0070239032199995
2023-12-11 14:13:00.286242,0.0067678018491724,0.0094758640172306,0.0212324639435367,0.0070221966740825
2023-12-11 14:13:00.456245,0.0067723291329704,0.0094645495326198,0.0211887725990521,0.0070193535730877
2023-12-11 14:13:00.627240,0.0067786635119343,0.0094487187969061,0.0211276415664595,0.0070153756295927
2023-12-11 14:13:01.197244,0.0067868011704712,0.0094283813459327,0.0210491076688071,0.007010265239762
2023-12-11 14:13:01.228243,0.0067967372067598,0.0094035494302198,0.0209532182119783,0.0070040254819033
2023-12-11 14:13:01.584241,0.0068084656357034,0.0093742380075846,0.0208400309561963,0.0069966601146134
2023-12-11 14:13:01.668243,0.006821979392535,0.0093404647341323,0.0207096140812317,0.0069881735745142
2023-12-11 14:13:01.758241,0.0068372703370727,0.0093022499536199,0.0205620461453333,0.0069785709735801
2023-12-11 14:13:01.835245,0.0068543292586234,0.0092596166852022,0.0203974160379078,0.0069678580960588
2023-12-11 14:13:01.895252,0.0068731458815305,0.009212590609566,0.020215822925976,0.0069560413949872
2023-12-11 14:13:02.026240,0.006893708871364,0.0091612000534608,0.0200173761944383,0.0069431279883042
2023-12-11 14:13:02.316240,0.0069160058417478,0.009105475972636,0.0198021953801854,0.006929125654563
2023-12-11 14:13:02.364243,0.0069400233618206,0.0090454519331942,0.0195704101000938,0.006914042828246
2023-12-11 14:13:02.454240,0.0069657469643264,0.0089811640913723,0.0193221599729489,0.0068978885946837
2023-12-11 14:13:02.631242,0.0069931611543289,0.0089126511717624,0.019057594535345,0.0068806726845823
2023-12-11 14:13:02.760245,0.0070222494185452,0.0088399544439854,0.0187768731516087,0.0068624054681625
2023-12-11 14:13:02.865242,0.0070529942352926,0.0087631176978317,0.0184801649178048,0.0068430979489122
2023-12-11 14:13:03.164284,0.007085377085043,0.0086821872168843,0.0181676485598787,0.0068227617569592
2023-12-11 14:13:03.438243,0.0071193784615787,0.0085972117506385,0.0178395123259987,0.006801409142065
2023-12-11 14:13:05.942249,0.0071549778837418,0.0085082424851378,0.0174959538731623,0.0067790529662464
2023-12-11 14:13:06.243247,0.0071921539077716,0.0084153330121411,0.017137180148135,0.0067557066960279
2023-12-11 14:13:06.368243,0.0072308841402212,0.0083185392968406,0.0167634072627933,0.0067313843943295
2023-12-11 14:13:06.461242,0.007271145251447,0.0082179196441513,0.016374860363947,0.0067061007119964
2023-12-11 14:13:06.475245,0.0073129129896609,0.0081135346635893,0.0159717734977195,0.0066798708789734
2023-12-11 14:13:06.475245,0.0073561621955392,0.0080054472327639,0.0155543894685664,0.0066527106951312
2023-12-11 14:13:06.476243,0.0074008668173775,0.0078937224595016,0.0151229596930199,0.0066246365207488
2023-12-11 14:13:06.477244,0.0074469999267833,0.0077784276426283,0.0146777440482447,0.0065956652666591
2023-12-11 14:13:06.477244,0.0074945337348964,0.0076596322314305,0.0142190107154974,0.0065658143840624
2023-12-11 14:13:06.478243,0.0075434396091283,0.0075374077838218,0.0137470360185846,0.0065351018540141
2023-12-11 14:13:06.478243,0.0075936880904089,0.0074118279232393,0.0132621042574155,0.0065035461765939
2023-12-11 14:13:06.479245,0.0076452489109322,0.0072829682942951,0.0127645075367501,0.0064711663597619
2023-12-11 14:13:06.483244,0.0076980910123878,0.0071509065172114,0.0122545455902466,0.006437981907909
2023-12-11 14:13:06.487241,0.0077521825646696,0.0070157221410647,0.011732525599913,0.0064040128101082
2023-12-11 14:13:06.487241,0.0078074909850492,0.0068774965958682,0.0111987620110718,0.0063692795280738
2023-12-11 14:13:06.488242,0.0078639829578024,0.0067363131435217,0.0106535763429503,0.0063338029838361
2023-12-11 14:13:06.488242,0.0079216244542769,0.0065922568276578,0.010097296995009,0.0062976045471388
2023-12-11 14:13:06.489243,0.0079803807533909,0.0064454144224146,0.0095302590491267,0.0062607060225667
2023-12-11 14:13:06.492244,0.0080402164625466,0.0062958743801661,0.0089528040677589,0.0062231296364113
2023-12-11 14:13:06.492244,0.0081010955389503,0.0061437267782421,0.008365279888194,0.0061848980232824
2023-12-11 14:13:06.493247,0.0081629813113228,0.005989063264669,0.0077680404130289,0.0061460342124742
2023-12-11 14:13:06.493247,0.0082258365019888,0.005831977002964,0.0071614453969911,0.0061065616140932
2023-12-11 14:13:06.494244,0.0082896232493319,0.0056725626160173,0.0065458602302363,0.0060665040049567
2023-12-11 14:13:06.495245,0.0083543031306005,0.0055109161290947,0.0059216557182507,0.0060258855142706
2023-12-11 14:13:06.496245,0.0084198371850528,0.0053471349119957,0.0052892078584918,0.0059847306090948
2023-12-11 14:13:06.496245,0.0084861859374247,0.0051813176204012,0.0046488976139016,0.0059430640796052
2023-12-11 14:13:06.497241,0.0085533094217089,0.0050135641364474,0.0040011106834287,0.0059009110241614
2023-12-11 14:13:06.501242,0.0086211672052282,0.0048439755085603,0.0033462372696977,0.0058582968341876
2023-12-11 14:13:06.502246,0.0086897184129913,0.004672653890588,0.0026846718439656,0.0058152471788785
2023-12-11 14:13:06.504247,0.0087589217523139,0.004499702480267,0.0020168129085076,0.0057717879897367
2023-12-11 14:13:06.504247,0.008828735537692,0.0043252254570599,0.0013430627565734,0.0057279454449526
2023-12-11 14:13:06.504247,0.0088991177159119,0.0041493279194013,0.0006638272300614,0.005683745953636
2023-12-11 14:13:06.505243,0.0089700258913812,0.0039721158213907,-2.048452494536816e-05,0.0056392161399075
2023-12-11 14:13:06.505243,0.0090414173516663,0.0037936959089696,-0.0007094603046339,0.005594382826862
2023-12-11 14:13:06.506247,0.0091132490932212,0.0036141756556215,-0.0014026850957569,0.0055492730204108
2023-12-11 14:13:06.507244,0.0091854778472905,0.0034336631976345,-0.0020997413256217,0.0055039138930146
2023-12-11 14:13:06.509242,0.0092580601059739,0.0032522672689634,-0.0028002091136198,0.0054583327673155
2023-12-11 14:13:06.510242,0.0093309521484325,0.0030700971357329,-0.003503666524148,0.0054125570996793
2023-12-11 14:13:06.513254,0.0094041100672256,0.0028872625304194,-0.0042096898207662,0.0053666144636566
2023-12-11 14:13:06.514246,0.0094774897947585,0.0027038735857525,-0.0049178537214404,0.0053205325333734
2023-12-11 14:13:06.515242,0.0095510471298273,0.0025200407683752,-0.0056277316547168,0.0052743390668613
2023-12-11 14:13:06.516241,0.0096247377642436,0.0023358748123026,-0.0063388960166723,0.0052280618893373
2023-12-11 14:13:06.519244,0.0096985173095249,0.0021514866522204,-0.0070509184284876,0.0051817288764428
2023-12-11 14:13:06.520245,0.0097723413236318,0.0019669873566614,-0.007763369994486,0.0051353679374522
2023-12-11 14:13:06.520245,0.0098461653377388,0.0017824880611024,-0.0084758215604844,0.0050890069984615
2023-12-11 14:13:06.521244,0.00991994488302,0.0015980999010202,-0.0091878439722997,0.005042673985567
2023-12-11 14:13:06.521244,0.0099936355174364,0.0014139339449476,-0.0098990083342552,0.0049963968080431
2023-12-11 14:13:06.522242,0.0100671928525051,0.0012301011275703,-0.0106088862675316,0.004950203341531
2023-12-11 14:13:06.522242,0.0101405725800381,0.0010467121829034,-0.0113170501682058,0.0049041214112477
2023-12-11 14:13:06.523245,0.0102137304988312,0.0008638775775899,-0.012023073464824,0.004858178775225
2023-12-11 14:13:06.524248,0.0102866225412898,0.0006817074443594,-0.0127265308753522,0.0048124031075889
2023-12-11 14:13:06.526248,0.0103592047999731,0.0005003115156883,-0.0134269986633503,0.0047668219818898
2023-12-11 14:13:06.527246,0.0104314335540425,0.0003197990577013,-0.0141240548932151,0.0047214628544935
2023-12-11 14:13:06.528245,0.0105032652955974,0.0001402788043532,-0.0148172796843381,0.0046763530480423
2023-12-11 14:13:06.529247,0.0105746567558825,-3.8141108067888025e-05,-0.0155062554640267,0.0046315197349968
2023-12-11 14:13:06.530247,0.0106455649313518,-0.0002153532060784,-0.0161905672190335,0.0045869899212684
2023-12-11 14:13:06.531244,0.0107159471095717,-0.000391250743737,-0.0168698027455455,0.0045427904299517
2023-12-11 14:13:06.534245,0.0107857608949498,-0.0005657277669441,-0.0175435528974797,0.0044989478851677
2023-12-11 14:13:06.536263,0.0108549642342724,-0.0007386791772651,-0.0182114118329378,0.0044554886960258
2023-12-11 14:13:06.537241,0.0109235154420355,-0.0009100007952374,-0.0188729772586698,0.0044124390407167
2023-12-11 14:13:06.537241,0.0109913732255548,-0.0010795894231245,-0.0195278506724008,0.0043698248507429
2023-12-11 14:13:06.538246,0.0110584967098389,-0.0012473429070783,-0.0201756376028737,0.0043276717952991
2023-12-11 14:13:06.538246,0.0111248454622109,-0.0014131601986728,-0.0208159478474639,0.0042860052658096
2023-12-11 14:13:06.539241,0.0111903795166631,-0.0015769414157719,-0.0214483957072228,0.0042448503606337
2023-12-11 14:13:06.539241,0.0112550593979318,-0.0017385879026944,-0.0220726002192084,0.0042042318699476
2023-12-11 14:13:06.540248,0.0113188461452749,-0.0018980022896411,-0.0226881853859632,0.0041641742608111
2023-12-11 14:13:06.540248,0.0113817013359409,-0.0020550885513461,-0.023294780402001,0.0041247016624301
2023-12-11 14:13:06.541247,0.0114435871083134,-0.0022097520649192,-0.0238920198771661,0.004085837851622
2023-12-11 14:13:06.541247,0.0115044661847171,-0.0023618996668432,-0.024479544056731,0.0040476062384931
2023-12-11 14:13:06.542247,0.0115643018938728,-0.0025114397090917,-0.0250569990380988,0.0040100298523376
2023-12-11 14:13:06.543248,0.0116230581929867,-0.0026582821143349,-0.0256240369839811,0.0039731313277655
2023-12-11 14:13:06.543248,0.0116806996894613,-0.0028023384301988,-0.0261803163319224,0.0039369328910683
2023-12-11 14:13:06.544247,0.0117371916622144,-0.0029435218825453,-0.0267255020000439,0.0039014563468306
2023-12-11 14:13:06.544247,0.0117925000825941,-0.0030817474277418,-0.0272592655888851,0.0038667230647962
2023-12-11 14:13:06.545244,0.0118465916348759,-0.0032169318038886,-0.0277812855792187,0.0038327539669953
2023-12-11 14:13:06.545244,0.0118994337363315,-0.0033489935809722,-0.0282912475257222,0.0037995695151425
2023-12-11 14:13:06.546244,0.0119509945568548,-0.0034778532099164,-0.0287888442463876,0.0037671896983104
2023-12-11 14:13:06.546244,0.0120012430381354,-0.0036034330704989,-0.0292737760075567,0.0037356340208902
2023-12-11 14:13:06.547249,0.0120501489123673,-0.0037256575181076,-0.0297457507044695,0.0037049214908419
2023-12-11 14:13:06.548244,0.0120976827204804,-0.0038444529293054,-0.0302044840372168,0.0036750706082452
2023-12-11 14:13:06.549247,0.0121438158298861,-0.0039597477461787,-0.030649699681992,0.0036460993541556
2023-12-11 14:13:06.549247,0.0121885204517245,-0.004071472519441,-0.0310811294575385,0.0036180251797732
2023-12-11 14:13:06.550247,0.0122317696576028,-0.0041795599502664,-0.0314985134866916,0.0035908649959309
2023-12-11 14:13:06.555244,0.0122735373958167,-0.0042839449308284,-0.0319016003529191,0.0035646351629079
2023-12-11 14:13:06.556251,0.0123137985070424,-0.0043845645835178,-0.0322901472517654,0.0035393514805748
2023-12-11 14:13:06.559241,0.0123525287394921,-0.0044813582988182,-0.0326639201371071,0.0035150291788765
2023-12-11 14:13:06.559241,0.0123897047635219,-0.004574267771815,-0.0330226938621344,0.0034916829086579
2023-12-11 14:13:06.560240,0.012425304185685,-0.0046632370373156,-0.0333662523149708,0.0034693267328394
2023-12-11 14:13:06.561240,0.0124593055622207,-0.0047482125035614,-0.0336943885488508,0.0034479741179452
2023-12-11 14:13:06.561240,0.0124916884119711,-0.0048291429845089,-0.0340069049067769,0.0034276379259921
2023-12-11 14:13:06.562244,0.0125224332287185,-0.0049059797306625,-0.0343036131405808,0.0034083304067419
2023-12-11 14:13:06.563245,0.0125515214929347,-0.0049786764584395,-0.0345843345243171,0.003390063190322
2023-12-11 14:13:06.564245,0.0125789356829373,-0.0050471893780494,-0.0348488999619211,0.0033728472802207
2023-12-11 14:13:06.566244,0.0126046592854431,-0.0051114772198713,-0.0350971500890659,0.0033566930466583
2023-12-11 14:13:06.567247,0.0126286768055159,-0.0051715012593131,-0.0353289353691576,0.0033416102203413
2023-12-11 14:13:06.567247,0.0126509737758997,-0.0052272253401379,-0.0355441161834104,0.0033276078866001
2023-12-11 14:13:06.568245,0.0126715367657332,-0.0052786158962431,-0.0357425629149481,0.0033146944799171
2023-12-11 14:13:06.569240,0.0126903533886403,-0.0053256419718794,-0.0359241560268799,0.0033028777788455
2023-12-11 14:13:06.569240,0.012707412310191,-0.005368275240297,-0.0360887861343054,0.0032921649013242
2023-12-11 14:13:06.570247,0.0127227032547287,-0.0054064900208095,-0.0362363540702038,0.0032825623003901
2023-12-11 14:13:06.571246,0.0127362170115602,-0.0054402632942618,-0.0363667709451684,0.0032740757602909
2023-12-11 14:13:06.571246,0.0127479454405039,-0.0054695747168969,-0.0364799582009504,0.0032667103930011
2023-12-11 14:13:06.573243,0.0127578814767925,-0.0054944066326099,-0.0365758476577792,0.0032604706351423
2023-12-11 14:13:06.573243,0.0127660191353293,-0.0055147440835832,-0.0366543815554316,0.0032553602453116
2023-12-11 14:13:06.574244,0.0127723535142933,-0.0055305748192969,-0.0367155125880242,0.0032513823018166
2023-12-11 14:13:06.574244,0.0127768807980912,-0.0055418893039077,-0.0367592039325088,0.0032485392008218
2023-12-11 14:13:06.575245,0.0127795982596568,-0.0055486807219931,-0.0367854292708531,0.0032468326549048
2023-12-11 14:13:06.576244,0.0121302073931919,-0.0065556431486945,-0.0410017418088531,0.0025788317741685
2023-12-11 14:13:06.577244,0.0121281752115178,-0.0065551188167762,-0.0410002849102413,0.0025782448834607
2023-12-11 14:13:06.577244,0.0121220798906057,-0.0065535461368593,-0.0409959150919873,0.0025764845648581
2023-12-11 14:13:06.578250,0.0121119251020491,-0.0065509260562674,-0.040988634986306,0.0025735518787111
2023-12-11 14:13:06.579246,0.0120977169627128,-0.0065472601532389,-0.040978448978461,0.0025694485915599
2023-12-11 14:13:06.581246,0.0120794640310487,-0.0065425506359769,-0.0409653632041224,0.0025641771750714
2023-12-11 14:13:06.581246,0.0120571773019403,-0.0065368003413184,-0.0409493855456716,0.0025577408045497
2023-12-11 14:13:06.582245,0.01203087020008,-0.0065300127330259,-0.0409305256274524,0.0025501433570239
2023-12-11 14:13:06.583246,0.0120005585718821,-0.0065221918997009,-0.0409087948099743,0.002541389408912
2023-12-11 14:13:06.584249,0.011966260675938,-0.0065133425523209,-0.0408842061830694,0.0025314842332653
2023-12-11 14:13:06.584249,0.0119279971720179,-0.0065034700214018,-0.0408567745580069,0.0025204337965911
2023-12-11 14:13:06.585246,0.0118857911086256,-0.0064925802537871,-0.040826516458572,0.0025082447552592
2023-12-11 14:13:06.595240,0.0118396679091157,-0.0064806798090658,-0.0407934501111126,0.0024949244514925
2023-12-11 14:13:06.596245,0.0117896553563787,-0.0064677758556205,-0.0407575954335598,0.0024804809089437
2023-12-11 14:13:06.596245,0.0117357835761065,-0.0064538761663105,-0.0407189740234306,0.0024649228278629
2023-12-11 14:13:06.597249,0.011678085018645,-0.0064389891137888,-0.0406776091448185,0.0024482595798563
2023-12-11 14:13:06.601245,0.0116165944394478,-0.0064231236654591,-0.0406335257143796,0.0024305012022415
2023-12-11 14:13:06.602244,0.0115513488781404,-0.0064062893780744,-0.0405867502863239,0.0024116583920011
2023-12-11 14:13:06.602244,0.0114823876362094,-0.0063884963919798,-0.0405373110364203,0.0023917424993394
2023-12-11 14:13:06.603245,0.0114097522533283,-0.0063697554250049,-0.0404852377450243,0.0023707655208455
2023-12-11 14:13:06.603245,0.0113334864823356,-0.0063500777660073,-0.0404305617791394,0.0023487400922668
2023-12-11 14:13:06.605244,0.0112536362628802,-0.0063294752680732,-0.0403733160735231,0.0023256794808979
2023-12-11 14:13:06.605244,0.0111702496937483,-0.0063079603413768,-0.0403135351108479,0.0023015975775888
2023-12-11 14:13:06.606244,0.0110833770038911,-0.0062855459457055,-0.0402512549009303,0.0022765088883776
2023-12-11 14:13:06.606244,0.0109930705221688,-0.0062622455826531,-0.0401865129590399,0.0022504285257525
2023-12-11 14:13:06.608246,0.0108993846458291,-0.006238073287487,-0.0401193482833017,0.0022233721995488
2023-12-11 14:13:06.608246,0.0108023758077408,-0.0062130436206941,-0.040049801331205,0.0021953562074856
2023-12-11 14:13:06.609246,0.0107021024424005,-0.0061871716592097,-0.0399779139952331,0.0021663974253491
2023-12-11 14:13:06.610247,0.010598624950734,-0.0061604729873359,-0.0399037295776292,0.0021365132968267
2023-12-11 14:13:06.610247,0.0104920056637132,-0.0061329636873544,-0.0398272927643124,0.002105721823
2023-12-11 14:13:14.015090,0.0103823088048096,-0.0061046603298389,-0.0397486495979611,0.0020740415515015
2023-12-11 14:13:21.137485,0.0102696004513093,-0.0060755799636735,-0.039667847450278,0.0020414915653422
2023-12-11 14:13:21.654806,0.01015394849451,-0.0060457401057834,-0.0395849349934553,0.0020080914714165
2023-12-11 14:13:32.341983,0.010035422598826,-0.0060151587305834,-0.0394999621708569,0.0019738613886921
2023-12-11 14:13:34.656166,0.0099140941598249,-0.0059838542591502,-0.0394129801669337,0.001938821936091
2023-12-11 14:13:35.268170,0.0097900362612215,-0.005951845548127,-0.0393240413763924,0.0019029942200691
2023-12-11 14:13:37.798169,0.0096633236308552,-0.0059191518783643,-0.0392331993726349,0.0018663998219029
2023-12-11 14:13:40.670170,0.0095340325956763,-0.0058857929433063,-0.0391405088754873,0.0018290607846896
2023-12-11 14:13:40.965169,0.0094022410357701,-0.0058517888371282,-0.0390460257182391,0.0017909996000688
2023-12-11 14:13:44.392934,0.0092680283374441,-0.005817160042632,-0.0389498068140116,0.0017522391946752
2023-12-11 14:13:45.153937,0.0091314753454093,-0.0057819274189087,-0.0388519101214745,0.0017128029163274
2023-12-11 14:13:45.229935,0.008992664314082,-0.0057461121887733,-0.038752394609935,0.001672714519965
2023-12-11 14:13:45.417939,0.0088516788580371,-0.0057097359259813,-0.038651320223816,0.001631998153339
2023-12-11 14:13:47.043938,0.0087086039016415,-0.0056728205422332,-0.0385487478465484,0.0015906783424661
2023-12-11 14:13:47.531940,0.008563525627899,-0.0056353882739758,-0.0384447392638968,0.0015487799768553
2023-12-11 14:13:47.575940,0.0084165314265369,-0.0055974616690077,-0.0383393571267423,0.0015063282945154
2023-12-11 14:13:47.579939,0.0082677098413655,-0.0055590635728978,-0.0382326649133437,0.0014633488667525
2023-12-11 14:13:48.919936,0.0081171505169431,-0.0055202171152232,-0.0381247268911009,0.0014198675827667
2023-12-11 14:13:49.018934,0.0079649441445769,-0.0054809456956376,-0.0380156080778426,0.0013759106340577
2023-12-11 14:13:49.074934,0.0078111824076942,-0.0054412729697756,-0.0379053742026615,0.0013315044986477
2023-12-11 14:13:49.294936,0.0076559579266158,-0.0054012228350038,-0.0377940916663221,0.0012866759251322
2023-12-11 14:13:49.757935,0.0074993642027649,-0.0053608194160258,-0.0376818275012634,0.0012414519165676
2023-12-11 14:13:49.851935,0.0073414955623453,-0.0053200870503505,-0.0375686493312203,0.0011958597142058
2023-12-11 14:13:49.886942,0.0071824470995229,-0.0052790502736318,-0.0374546253304907,0.0011499267810845
2023-12-11 14:13:49.905935,0.0070223146191446,-0.0052377338048897,-0.0373398241828688,0.0011036807854852
2023-12-11 14:13:49.905935,0.0068611945790287,-0.0051961625316198,-0.0372243150402734,0.0010571495842663
2023-12-11 14:13:49.906936,0.0066991840318627,-0.0051543614948029,-0.0371081674810927,0.0010103612060836
2023-12-11 14:13:49.907936,0.0065363805667424,-0.0051123558738204,-0.0369914514682733,0.0009633438345065
2023-12-11 14:13:49.909937,0.0063728822503874,-0.0050701709712877,-0.0368742373071772,0.0009161257910416
2023-12-11 14:13:49.909937,0.00620878756807,-0.0050278321978128,-0.036756595603232,0.0008687355180726
2023-12-11 14:13:49.909937,0.0060441953642909,-0.0049853650566895,-0.0366385972194012,0.000821201561728
2023-12-11 14:13:49.910935,0.0058792047832392,-0.0049427951285358,-0.0365203132334991,0.0007735525546857
2023-12-11 14:13:49.912935,0.0057139152090714,-0.0049001480558846,-0.0364018148953759,0.0007258171989258
2023-12-11 14:13:49.912935,0.0055484262060465,-0.0048574495277378,-0.0362831735839994,0.0006780242484417
2023-12-11 14:13:49.913935,0.0053828374585519,-0.0048147252640922,-0.0361644607644594,0.0006302024919196
2023-12-11 14:13:49.913935,0.0052172487110572,-0.0047720010004465,-0.0360457479449193,0.0005823807353974
2023-12-11 14:13:49.914935,0.0050517597080323,-0.0047293024722997,-0.0359271066335429,0.0005345877849133
2023-12-11 14:13:49.915938,0.0048864701338646,-0.0046866553996486,-0.0358086082954196,0.0004868524291534
2023-12-11 14:13:49.916938,0.0047214795528128,-0.0046440854714949,-0.0356903243095175,0.0004392034221111
2023-12-11 14:13:49.932934,0.0045568873490337,-0.0046016183303716,-0.0355723259256868,0.0003916694657665
2023-12-11 14:13:50.172937,0.0043927926667163,-0.0045592795568967,-0.0354546842217415,0.0003442791927976
2023-12-11 14:13:51.390977,0.0042292943503613,-0.004517094654364,-0.0353374700606454,0.0002970611493326
2023-12-11 14:13:51.949934,0.004066490885241,-0.0044750890333815,-0.0352207540478261,0.0002500437777555
2023-12-11 14:13:53.185943,0.0039044803380751,-0.0044332879965645,-0.0351046064886454,0.0002032553995728
2023-12-11 14:13:54.509934,0.0037433602979592,-0.0043917167232947,-0.0349890973460499,0.0001567241983539
2023-12-11 14:13:54.897943,0.0035832278175808,-0.0043504002545525,-0.034874296198428,0.0001104782027546
2023-12-11 14:13:55.549936,0.0034241793547584,-0.0043093634778339,-0.0347602721976984,6.454526963336987e-05
2023-12-11 14:13:57.184938,0.0032663107143388,-0.0042686311121586,-0.0346470940276554,1.895306727150752e-05
2023-12-11 14:13:57.287937,0.0031097169904879,-0.0042282276931806,-0.0345348298625966,-2.6270941293034668e-05
2023-12-11 14:13:57.541938,0.0029544925094095,-0.0041881775584088,-0.0344235473262573,-7.109951480853268e-05
2023-12-11 14:13:57.928939,0.0028007307725268,-0.0041485048325468,-0.0343133134510762,-0.0001155056502185
2023-12-11 14:13:58.223977,0.0026485244001606,-0.0041092334129612,-0.0342041946378178,-0.0001594625989275
2023-12-11 14:13:58.364939,0.0024979650757382,-0.0040703869552866,-0.034096256615575,-0.0002029438829133
2023-12-11 14:13:58.438940,0.0023491434905669,-0.0040319888591767,-0.0339895644021764,-0.0002459233106762
2023-12-11 14:13:59.366935,0.0022021492892047,-0.0039940622542086,-0.0338841822650219,-0.0002883749930161
2023-12-11 14:13:59.426934,0.0020570710154622,-0.0039566299859512,-0.0337801736823703,-0.0003302733586269
2023-12-11 14:13:59.490935,0.0019139960590666,-0.0039197146022031,-0.0336776013051027,-0.0003715931694998
2023-12-11 14:13:59.539937,0.0017730106030217,-0.0038833383394111,-0.0335765269189837,-0.0004123095361258
2023-12-11 14:13:59.636935,0.0016341995716945,-0.0038475231092757,-0.0334770114074442,-0.0004523979324882
2023-12-11 14:13:59.945937,0.0014976465796597,-0.0038122904855523,-0.0333791147149072,-0.000491834210836
2023-12-11 14:14:00.147976,0.0013634338813337,-0.0037776616910561,-0.0332828958106796,-0.0005305946162296
2023-12-11 14:14:00.614967,0.0012316423214274,-0.003743657584878,-0.0331884126534315,-0.0005686558008504
2023-12-11 14:14:00.693973,0.0011023512862486,-0.0037102986498201,-0.0330957221562838,-0.0006059948380637
2023-12-11 14:14:01.060937,0.0009756386558822,-0.0036776049800574,-0.0330048801525263,-0.0006425892362299
2023-12-11 14:14:01.488982,0.0008515807572788,-0.0036455962690342,-0.032915941361985,-0.0006784169522518
2023-12-11 14:14:01.649937,0.0007302523182777,-0.003614291797601,-0.0328289593580618,-0.0007134564048529
2023-12-11 14:14:03.144945,0.0006117264225937,-0.0035837104224009,-0.0327439865354634,-0.0007476864875773
2023-12-11 14:14:03.276940,0.0004960744657944,-0.0035538705645109,-0.0326610740786407,-0.000781086581503
2023-12-11 14:14:03.781937,0.0003833661122941,-0.0035247901983455,-0.0325802719309576,-0.0008136365676623
2023-12-11 14:14:03.911935,0.0002736692533906,-0.00349648684083,-0.0325016287646063,-0.0008453168391608
2023-12-11 14:14:03.942935,0.0001670499663697,-0.0034689775408484,-0.0324251919512896,-0.0008761083129875
2023-12-11 14:14:04.039936,6.35724747033103e-05,-0.0034422788689747,-0.0323510075336856,-0.0009059924415099
2023-12-11 14:14:04.100935,-3.670089063699588e-05,-0.0034164069074902,-0.0322791201977137,-0.0009349512236464
2023-12-11 14:14:04.304935,-0.0001337097287253,-0.0033913772406973,-0.032209573245617,-0.0009629672157096
2023-12-11 14:14:04.728936,-0.000227395605065,-0.0033672049455313,-0.0321424085698788,-0.0009900235419133
2023-12-11 14:14:05.092935,-0.0003177020867873,-0.0033439045824789,-0.0320776666279885,-0.0010161039045384
2023-12-11 14:14:05.255973,-0.0004045747766444,-0.0033214901868076,-0.0320153864180708,-0.0010411925937496
2023-12-11 14:14:05.795938,-0.0004879613457763,-0.0032999752601112,-0.0319556054553956,-0.0010652744970587
2023-12-11 14:14:06.705934,-0.0005678115652318,-0.003279372762177,-0.0318983597497793,-0.0010883351084276
2023-12-11 14:14:06.741937,-0.0006440773362245,-0.0032596951031795,-0.0318436837838944,-0.0011103605370063
2023-12-11 14:14:06.834934,-0.0007167127191056,-0.0032409541362046,-0.0317916104924984,-0.0011313375155002
2023-12-11 14:14:06.961934,-0.0007856739610366,-0.00322316115011,-0.0317421712425948,-0.0011512534081619
2023-12-11 14:14:07.262943,-0.0008509195223439,-0.0032063268627253,-0.0316953958145391,-0.0011700962184023
2023-12-11 14:14:07.422937,-0.0009124101015412,-0.0031904614143956,-0.0316513123841002,-0.0011878545960171
2023-12-11 14:14:07.719977,-0.0009701086590027,-0.0031755743618739,-0.0316099475054881,-0.0012045178440237
2023-12-11 14:14:07.805939,-0.0010239804392749,-0.0031616746725639,-0.031571326095359,-0.0012200759251045
2023-12-11 14:14:07.865937,-0.0010739929920118,-0.0031487707191186,-0.0315354714178061,-0.0012345194676533
2023-12-11 14:14:07.986935,-0.0011201161915218,-0.0031368702743972,-0.0315024050703467,-0.00124783977142
2023-12-11 14:14:08.500938,-0.0011623222549141,-0.0031259805067826,-0.0314721469709119,-0.0012600288127519
2023-12-11 14:14:08.749937,-0.0012005857588342,-0.0031161079758635,-0.0314447153458494,-0.0012710792494261
2023-12-11 14:14:10.184934,-0.0012348836547782,-0.0031072586284835,-0.0314201267189444,-0.0012809844250728
2023-12-11 14:14:10.224942,-0.0012651952829762,-0.0030994377951585,-0.0313983959014664,-0.0012897383731846
2023-12-11 14:14:10.277936,-0.0012915023848365,-0.003092650186866,-0.0313795359832471,-0.0012973358207105
2023-12-11 14:14:10.340934,-0.0013137891139449,-0.0030868998922075,-0.0313635583247963,-0.0013037721912322
2023-12-11 14:14:10.401936,-0.0013320420456089,-0.0030821903749455,-0.0313504725504577,-0.0013090436077207
2023-12-11 14:14:10.478937,-0.0013462501849452,-0.003078524471917,-0.0313402865426127,-0.0013131468948719
2023-12-11 14:14:10.652939,-0.0013564049735019,-0.0030759043913251,-0.0313330064369314,-0.0013160795810189
2023-12-11 14:14:10.713934,-0.0013625002944139,-0.0030743317114081,-0.0313286366186774,-0.0013178398996215
2023-12-11 14:14:11.087936,-0.0024731220910952,-0.004257135272777,-0.0295282184597836,-0.0004893556584493
2023-12-11 14:14:11.207943,-0.0024730097565984,-0.0042597088830621,-0.0295265599307828,-0.000487332988576
2023-12-11 14:14:11.293935,-0.0024726728207741,-0.004267428163671,-0.029521585342816,-0.0004812661973366
2023-12-11 14:14:11.737934,-0.00247211148658,-0.0042802884647977,-0.0295132976923892,-0.0004711589391393
2023-12-11 14:14:14.354935,-0.0024713260921427,-0.0042982820398775,-0.0295017019716731,-0.0004570173022186
2023-12-11 14:14:14.413934,-0.0024703171105544,-0.0043213980502537,-0.0294868051654961,-0.0004388498049678
2023-12-11 14:14:14.476937,-0.0024690851495879,-0.0043496225717061,-0.0294686162471373,-0.0004166673908078
2023-12-11 14:14:14.666936,-0.0024676309513305,-0.0043829386028382,-0.0294471461729211,-0.0003904834215956
2023-12-11 14:14:14.855933,-0.0024659553917368,-0.0044213260753188,-0.0294224078756172,-0.000360313669575
2023-12-11 14:14:15.446934,-0.0024640594801013,-0.0044647618659697,-0.0293944162566511,-0.0003261763078766
2023-12-11 14:14:15.494936,-0.0024619443584502,-0.0045132198106948,-0.0293631881771272,-0.0002880918995705
2023-12-11 14:14:16.000938,-0.0024596113008537,-0.0045666707202403,-0.0293287424476729,-0.0002460833852804
2023-12-11 14:14:16.048936,-0.0024570617126585,-0.0046250823977768,-0.0292910998171078,-0.0002001760693643
2023-12-11 14:14:16.079935,-0.0024542971296412,-0.0046884196582939,-0.0292502829599448,-0.0001503976046729
2023-12-11 14:14:16.111934,-0.0024513192170832,-0.0047566443497944,-0.0292063164627326,-9.677797589186032e-05
2023-12-11 14:14:16.172934,-0.0024481297687677,-0.004829715376275,-0.0291592268092449,-3.9349481480620346e-05
2023-12-11 14:14:17.217937,-0.0024447307058991,-0.0049075887224817,-0.0291090423645284,2.1853285783162443e-05
2023-12-11 14:14:17.311935,-0.0024411240759457,-0.0049902174804227,-0.0290557933578159,8.679345964100619e-05
2023-12-11 14:14:17.508937,-0.0024373120514066,-0.0050775518776238,-0.028999511864318,0.0001554319225604
2023-12-11 14:14:17.644935,-0.0024332969285028,-0.0051695393071099,-0.0289402317859018,0.0002277273292979
2023-12-11 14:14:17.698942,-0.0024290811257943,-0.005266124359093,-0.0288779888306701,0.0003036361318039
2023-12-11 14:14:18.805934,-0.0024246671827229,-0.0053672488543494,-0.0288128204914516,0.0003831126054539
2023-12-11 14:14:18.977938,-0.0024200577580829,-0.0054728518792643,-0.028744766023217,0.0004661088765922
2023-12-11 14:14:19.176937,-0.0024152556284194,-0.0055828698225245,-0.0286738664194333,0.0005525749513685
2023-12-11 14:14:19.527965,-0.0024102636863556,-0.0056972364134346,-0.0286001643873707,0.0006424587458524
2023-12-11 14:14:19.644941,-0.0024050849388509,-0.0058158827618367,-0.0285237043223775,0.0007357061174072
2023-12-11 14:14:20.155937,-0.0023997225053891,-0.0059387373996071,-0.0284445322811377,0.000832260897303
2023-12-11 14:14:20.304938,-0.0023941796160995,-0.0060657263237058,-0.0283626959539286,0.0009320649245507
2023-12-11 14:14:22.647937,-0.0023884596098115,-0.0061967730407533,-0.0282782446358935,0.0010350580809363
2023-12-11 14:14:22.720935,-0.0023825659320429,-0.0063317986131074,-0.0281912291973488,0.0011411783272336
2023-12-11 14:14:23.090940,-0.0023765021329248,-0.0064707217064123,-0.0281017020531407,0.0012503617405741
2023-12-11 14:14:23.125938,-0.0023702718650632,-0.0066134586385912,-0.0280097171310735,0.0013625425529525
2023-12-11 14:14:23.258935,-0.0023638788813383,-0.0067599234302536,-0.0279153298394245,0.001477653190842
2023-12-11 14:14:23.877936,-0.0023573270326446,-0.0069100278564854,-0.0278185970335689,0.0015956243158986
2023-12-11 14:14:24.038937,-0.0023506202655706,-0.0070636814999932,-0.0277195769817318,0.0017163848667278
2023-12-11 14:14:24.214935,-0.0023437626200222,-0.0072207918055676,-0.02761832932989,0.0018398621016893
2023-12-11 14:14:24.385935,-0.0023367582267885,-0.0073812641358352,-0.0275149150658429,0.001965981642714
2023-12-11 14:14:24.450935,-0.0023296113050541,-0.0075450018282647,-0.0274093964824764,0.0020946675201061
2023-12-11 14:14:24.552935,-0.0023223261598575,-0.0077119062533928,-0.0273018371402394,0.002225842218305
2023-12-11 14:14:24.827935,-0.0023149071794977,-0.0078818768742347,-0.0271923018288578,0.0023594267225775
2023-12-11 14:14:25.269936,-0.002307358832891,-0.0080548113068441,-0.0270808565283075,0.0024953405666132
2023-12-11 14:14:25.395936,-0.0022996856668792,-0.0082306053819851,-0.0269675683690702,0.0026335018809947
2023-12-11 14:14:25.604937,-0.0022918923034906,-0.0084091532078802,-0.0268525055916969,0.0027738274425123
2023-12-11 14:14:25.786937,-0.0022839834371559,-0.0085903472339955,-0.0267357375057023,0.0029162327242949
2023-12-11 14:14:26.450934,-0.0022759638318804,-0.008774078315825,-0.0266173344478151,0.0030606319467256
2023-12-11 14:14:27.065936,-0.0022678383183745,-0.008960235780635,-0.0264973677396101,0.0032069381291123
2023-12-11 14:14:27.316937,-0.0022596117911436,-0.0091487074941297,-0.0263759096445464,0.0033550631420814
2023-12-11 14:14:27.686936,-0.0022512892055402,-0.0093393799279963,-0.0262530333244388,0.0035049177606639
2023-12-11 14:14:27.988941,-0.0022428755747787,-0.0095321382282902,-0.026128812795388,0.003656411718041
2023-12-11 14:14:28.136941,-0.0022343759669155,-0.0097268662846191,-0.0260033228831957,0.0038094537599174
2023-12-11 14:14:28.283940,-0.0022257955017967,-0.0099234468000833,-0.0258766391782927,0.0039639516994898
2023-12-11 14:14:28.629941,-0.0022171393479736,-0.0101217613619307,-0.0257488379902058,0.0041198124729763
2023-12-11 14:14:31.267936,-0.0022084127195896,-0.0103216905128849,-0.025619996301592,0.0042769421956751
2023-12-11 14:14:31.347937,-0.0021996208732393,-0.0105231138231011,-0.0254901917218667,0.0044352462185167
2023-12-11 14:14:31.368935,-0.0021907691048023,-0.0107259099627089,-0.025359502440455,0.0045946291850771
2023-12-11 14:14:31.370941,-0.0021818627462527,-0.0109299567748969,-0.0252280071796933,0.0047549950890169
2023-12-11 14:14:31.370941,-0.002172907162448,-0.0111351313494953,-0.0250957851474098,0.004916247331912
2023-12-11 14:14:31.371936,-0.0021639077478971,-0.0113413100970121,-0.0249629159892126,0.005078288781441
2023-12-11 14:14:31.373936,-0.0021548699235106,-0.0115483688230796,-0.0248294797405142,0.0052410218298938
2023-12-11 14:14:31.374941,-0.0021457991333361,-0.0117561828032635,-0.0246955567783215,0.005404348452967
2023-12-11 14:14:31.374941,-0.0021367008412785,-0.0119646268581928,-0.0245612277728191,0.0055681702688099
2023-12-11 14:14:31.375935,-0.0021275805278085,-0.012173575428963,-0.0244265736387771,0.0057323885972866
2023-12-11 14:14:31.375935,-0.0021184436866621,-0.0123829026527682,-0.0242916754868108,0.0058969045194162
2023-12-11 14:14:31.377939,-0.0021092958215307,-0.0125924824387161,-0.0241566145745227,0.0060616189369592
2023-12-11 14:14:31.378937,-0.0021001424427462,-0.0128021885437803,-0.0240214722575561,0.0062264326321093
2023-12-11 14:14:31.379938,-0.0020909890639616,-0.0130118946488444,-0.0238863299405896,0.0063912463272594
2023-12-11 14:14:31.380935,-0.0020818411988302,-0.0132214744347923,-0.0237512690283015,0.0065559607448023
2023-12-11 14:14:31.380935,-0.0020727043576838,-0.0134308016585975,-0.0236163708763351,0.006720476666932
2023-12-11 14:14:31.381935,-0.0020635840442139,-0.0136397502293678,-0.0234817167422931,0.0068846949954086
2023-12-11 14:14:31.382937,-0.0020544857521562,-0.013848194284297,-0.0233473877367908,0.0070485168112515
2023-12-11 14:14:31.384935,-0.0020454149619817,-0.0140560082644809,-0.023213464774598,0.0072118434343247
2023-12-11 14:14:31.384935,-0.0020363771375953,-0.0142630669905484,-0.0230800285258997,0.0073745764827775
2023-12-11 14:14:31.385939,-0.0020273777230443,-0.0144692457380653,-0.0229471593677025,0.0075366179323065
2023-12-11 14:14:31.386939,-0.0020184221392396,-0.0146744203126636,-0.022814937335419,0.0076978701752017
2023-12-11 14:14:31.387940,-0.0020095157806901,-0.0148784671248516,-0.0226834420746573,0.0078582360791414
2023-12-11 14:14:31.388937,-0.002000664012253,-0.0150812632644594,-0.0225527527932456,0.0080176190457018
2023-12-11 14:14:31.389941,-0.0019918721659027,-0.0152826865746756,-0.0224229482135203,0.0081759230685434
2023-12-11 14:14:31.389941,-0.0019831455375187,-0.0154826157256298,-0.0222941065249064,0.0083330527912422
2023-12-11 14:14:31.390937,-0.0019744893836956,-0.0156809302874773,-0.0221663053368195,0.0084889135647288
2023-12-11 14:14:31.391942,-0.0019659089185768,-0.0158775108029414,-0.0220396216319166,0.0086434115043011
2023-12-11 14:14:31.391942,-0.0019574093107136,-0.0160722388592703,-0.0219141317197243,0.0087964535461775
2023-12-11 14:14:31.392939,-0.0019489956799521,-0.0162649971595643,-0.0217899111906735,0.0089479475035546
2023-12-11 14:14:31.393939,-0.0019406730943487,-0.0164556695934308,-0.0216670348705659,0.0090978021221371
2023-12-11 14:14:31.394939,-0.0019324465671179,-0.0166441413069255,-0.0215455767755022,0.0092459271351062
2023-12-11 14:14:31.394939,-0.0019243210536119,-0.0168302987717355,-0.0214256100672971,0.0093922333174929
2023-12-11 14:14:31.396945,-0.0019163014483364,-0.017014029853565,-0.02130720700941,0.0095366325399236
2023-12-11 14:14:31.397938,-0.0019083925820017,-0.0171952238796803,-0.0211904389234154,0.0096790378217062
2023-12-11 14:14:31.398936,-0.0019005992186131,-0.0173737717055755,-0.0210753761460421,0.0098193633832238
2023-12-11 14:14:31.399935,-0.0018929260526013,-0.0175495657807165,-0.0209620879868048,0.0099575246976053
2023-12-11 14:14:31.400938,-0.0018853777059947,-0.0177225002133258,-0.0208506426862544,0.010093438541641
2023-12-11 14:14:31.403940,-0.0018779587256348,-0.0178924708341677,-0.0207411073748729,0.0102270230459135
2023-12-11 14:14:31.404937,-0.0018706735804382,-0.0180593752592958,-0.0206335480326359,0.0103581977441124
2023-12-11 14:14:31.405937,-0.0018635266587038,-0.0182231129517253,-0.0205280294492693,0.0104868836215045
2023-12-11 14:14:31.406945,-0.0018565222654701,-0.0183835852819929,-0.0204246151852223,0.0106130031625292
2023-12-11 14:14:31.409937,-0.0018496646199217,-0.0185406955875673,-0.0203233675333804,0.0107364803974907
2023-12-11 14:14:31.410938,-0.0018429578528477,-0.0186943492310751,-0.0202243474815434,0.0108572409483199
2023-12-11 14:14:31.411940,-0.001836406004154,-0.018844453657307,-0.0201276146756878,0.0109752120733765
2023-12-11 14:14:31.413941,-0.0018300130204291,-0.0189909184489693,-0.0200332273840388,0.011090322711266
2023-12-11 14:14:31.415938,-0.0018237827525675,-0.0191336553811482,-0.0199412424619715,0.0112025035236444
2023-12-11 14:14:31.415938,-0.0018177189534494,-0.0192725784744531,-0.0198517153177635,0.011311686936985
2023-12-11 14:14:31.417937,-0.0018118252756808,-0.0194076040468072,-0.0197646998792187,0.0114178071832822
2023-12-11 14:14:31.420942,-0.0018061052693928,-0.0195386507638547,-0.0196802485611837,0.0115208003396678
2023-12-11 14:14:31.421942,-0.0018005623801032,-0.0196656396879534,-0.0195984122339746,0.0116206043669155
2023-12-11 14:14:31.423942,-0.0017951999466414,-0.0197884943257238,-0.0195192401927348,0.0117171591468113
2023-12-11 14:14:31.424943,-0.0017900211991367,-0.0199071406741259,-0.0194427801277415,0.0118104065183661
2023-12-11 14:14:31.425940,-0.0017850292570729,-0.020021507265036,-0.0193690780956789,0.01190029031285
2023-12-11 14:14:31.426937,-0.0017802271274094,-0.0201315252082962,-0.0192981784918953,0.0119867563876263
2023-12-11 14:14:31.427938,-0.0017756177027694,-0.0202371282332111,-0.0192301240236607,0.0120697526587646
2023-12-11 14:14:31.428939,-0.001771203759698,-0.0203382527284675,-0.0191649556844422,0.0121492291324147
2023-12-11 14:14:31.430940,-0.0017669879569895,-0.0204348377804506,-0.0191027127292104,0.0122251379349206
2023-12-11 14:14:31.431941,-0.0017629728340857,-0.0205268252099367,-0.0190434326507943,0.0122974333416581
2023-12-11 14:14:34.902937,-0.0017591608095466,-0.0206141596071378,-0.0189871511572964,0.0123660718045776
2023-12-11 14:14:34.987940,-0.0017555541795933,-0.0206967883650788,-0.0189339021505839,0.0124310119784354
2023-12-11 14:14:35.281955,-0.0017521551167246,-0.0207746617112855,-0.0188837177058673,0.0124922147456992
2023-12-11 14:14:35.595952,-0.0017489656684091,-0.0208477327377661,-0.0188366280523797,0.0125496432401104
2023-12-11 14:14:36.760971,-0.0017459877558511,-0.0209159574292666,-0.0187926615551674,0.0126032628688915
2023-12-11 14:14:41.182068,-0.0017432231728338,-0.0209792946897837,-0.0187518446980045,0.0126530413335829
2023-12-11 14:14:44.775070,-0.0017406735846386,-0.0210377063673202,-0.0187142020674393,0.012698948649499
2023-12-11 14:14:45.241068,-0.0017383405270421,-0.0210911572768657,-0.0186797563379851,0.0127409571637892
2023-12-11 14:14:45.557070,-0.001736225405391,-0.0211396152215908,-0.0186485282584612,0.0127790415720952
2023-12-11 14:14:45.816070,-0.0017343294937555,-0.0211830510122417,-0.018620536639495,0.0128131789337936
2023-12-11 14:14:49.707111,-0.0017326539341618,-0.0212214384847223,-0.0185957983421912,0.0128433486858142
2023-12-11 14:14:49.985074,-0.0017311997359044,-0.0212547545158544,-0.0185743282679749,0.0128695326550265
2023-12-11 14:14:52.031073,-0.001729967774938,-0.0212829790373068,-0.0185561393496162,0.0128917150691864
2023-12-11 14:14:52.227074,-0.0017289587933497,-0.021306095047683,-0.0185412425434392,0.0129098825664373
2023-12-11 14:14:52.300071,-0.0017281733989123,-0.0213240886227628,-0.018529646822723,0.0129240242033579
2023-12-11 14:14:53.165068,-0.0017276120647182,-0.0213369489238895,-0.0185213591722962,0.0129341314615552
2023-12-11 14:14:53.203068,-0.0017272751288939,-0.0213446682044984,-0.0185163845843295,0.0129401982527946
2023-12-11 14:14:53.916070,-0.002548482368244,-0.0225146592893023,-0.0186502350631091,0.0126899842395484
2023-12-11 14:14:54.854068,-0.0025500170578163,-0.0225141074038402,-0.0186521282655929,0.0126875247480798
2023-12-11 14:14:54.903068,-0.0025546202020935,-0.022512452079889,-0.0186578067326499,0.0126801477551796
2023-12-11 14:14:55.109070,-0.0025622890283136,-0.0225096943145539,-0.0186672670437838,0.0126678577044726
2023-12-11 14:14:55.181068,-0.0025730189170624,-0.0225058357690097,-0.018680503500457,0.0126506619990257
2023-12-11 14:14:55.241069,-0.0025868034050563,-0.0225008787675,-0.018697508129523,0.0126285709968889
2023-12-11 14:14:55.357069,-0.002603634189035,-0.022494826295937,-0.0187182706880289,0.0126015980048559
2023-12-11 14:14:55.527068,-0.0026235011307637,-0.0224876820001034,-0.018742778669386,0.0125697592704484
2023-12-11 14:14:55.940069,-0.0026463922631395,-0.0224794501834557,-0.0187710173109027,0.0125330739721296
2023-12-11 14:14:56.316108,-0.0026722937974002,-0.0224701358045327,-0.0188029696026772,0.0124915642077514
2023-12-11 14:14:56.520072,-0.0027011901314301,-0.0224597444739677,-0.0188386162978438,0.0124452549812437
2023-12-11 14:14:56.914070,-0.0027330638591582,-0.0224482824511099,-0.0188779359241661,0.0123941741875529
2023-12-11 14:14:57.001066,-0.0027678957810425,-0.0224357566402531,-0.0189209047969716,0.0123383525958392
2023-12-11 14:14:57.363073,-0.0028056649156359,-0.0224221745864775,-0.018967497033418,0.0122778238309421
2023-12-11 14:14:57.594069,-0.002846348512224,-0.0224075444711043,-0.0190176845680843,0.0122126243531262
2023-12-11 14:14:57.928068,-0.0028899220645294,-0.0223918751067682,-0.0190714371698761,0.0121427934361191
2023-12-11 14:14:57.998106,-0.0029363593254736,-0.0223751759321081,-0.0191287224602362,0.0120683731434539
2023-12-11 14:14:58.237102,-0.0029856323229868,-0.0223574570060825,-0.0191895059326476,0.0119894083031322
2023-12-11 14:14:58.687071,-0.003037711376858,-0.0223387290019099,-0.0192537509734194,0.0119059464806211
2023-12-11 14:14:59.294073,-0.0030925651166123,-0.0223190032006397,-0.0193214188837413,0.0118180379502017
2023-12-11 14:14:59.535080,-0.0031501605004082,-0.022298291484357,-0.0193924689029944,0.0117257356646857
2023-12-11 14:15:00.010072,-0.0032104628349399,-0.0222766063290253,-0.0194668582333038,0.0116290952235183
2023-12-11 14:15:00.211114,-0.003273435796336,-0.0222539607969711,-0.0195445420653186,0.0115281748392877
2023-12-11 14:15:00.333071,-0.0033390414520394,-0.0222303685290164,-0.0196254736052032,0.0114230353026598
2023-12-11 14:15:00.382076,-0.0034072402836561,-0.022205843736261,-0.019709604102824,0.0113137399457599
2023-12-11 14:15:00.514067,-0.0034779912107601,-0.0221804011915232,-0.0197968828811153,0.0112003546040243
2023-12-11 14:15:00.788072,-0.0035512516156385,-0.0221540562204406,-0.0198872573666045,0.0110829475765431
2023-12-11 14:15:00.948110,-0.0036269773689628,-0.0221268246922385,-0.0199806731210809,0.0109615895849194
2023-12-11 14:15:02.180071,-0.0037051228563706,-0.0220987230101714,-0.020077073874387,0.0108363537306697
2023-12-11 14:15:02.249070,-0.0037856410059425,-0.0220697681016417,-0.0201764015583138,0.0107073154511895
2023-12-11 14:15:02.445068,-0.003868483316556,-0.0220399774080036,-0.0202785963415784,0.0105745524743134
2023-12-11 14:15:02.917068,-0.0039535998871007,-0.0220093688740571,-0.0203835966658648,0.0104381447714944
2023-12-11 14:15:03.117070,-0.0040409394465373,-0.0219779609372384,-0.0204913392829038,0.010298174509632
2023-12-11 14:15:03.207068,-0.004130449384781,-0.0219457725165143,-0.0206017592925717,0.0101547260015782
2023-12-11 14:15:03.525072,-0.0042220757843921,-0.0219128230009858,-0.0207147901819836,0.0100078856553503
2023-12-11 14:15:03.567067,-0.0043157634530535,-0.0218791322382091,-0.0208303638655581,0.0098577419220821
2023-12-11 14:15:03.629075,-0.0044114559568168,-0.0218447205222397,-0.0209484107260298,0.0097043852427443
2023-12-11 14:15:03.959068,-0.0045090956540959,-0.0218096085814088,-0.0210688596563841,0.0095479079936663
2023-12-11 14:15:04.081068,-0.0046086237303883,-0.0217738175658365,-0.0211916381026892,0.0093884044308918
2023-12-11 14:15:04.174069,-0.0047099802337022,-0.0217373690346923,-0.0213166721078,0.0092259706334027
2023-12-11 14:15:04.249068,-0.0048131041106701,-0.0217002849432084,-0.0214438863559072,0.0090607044452449
2023-12-11 14:15:04.342069,-0.0049179332433246,-0.021662587629455,-0.0215732042179044,0.0088927054165905
2023-12-11 14:15:04.419068,-0.005024404486516,-0.0216242998008842,-0.0217045477975473,0.0087220747437724
2023-12-11 14:15:04.505068,-0.0051324537059485,-0.0215854445206522,-0.0218378379783746,0.0085489152083276
2023-12-11 14:15:04.566071,-0.0052420158168126,-0.0215460451937271,-0.0219729944713655,0.0083733311150854
2023-12-11 14:15:04.652070,-0.0053530248229895,-0.0215061255527901,-0.0221099358633024,0.0081954282293381
2023-12-11 14:15:04.675068,-0.0054654138568048,-0.0214657096439401,-0.0222485796658114,0.0080153137131319
2023-12-11 14:15:04.675068,-0.0055791152193071,-0.0214248218122095,-0.02238884236505,0.0078330960607163
2023-12-11 14:15:04.676068,-0.005694060421047,-0.0213834866868993,-0.0225306394720131,0.0076488850331917
2023-12-11 14:15:04.677074,-0.0058101802233332,-0.0213417291667431,-0.0226738855734255,0.007462791592393
2023-12-11 14:15:04.678074,-0.0059274046799387,-0.0212995744049099,-0.022818494383192,0.0072749278340503
2023-12-11 14:15:04.680068,-0.0060456631792343,-0.0212570477938518,-0.022964378794373,0.007085406920267
2023-12-11 14:15:04.680068,-0.0061648844867218,-0.0212141749500092,-0.023111450931654,0.0068943430113551
2023-12-11 14:15:04.711073,-0.0062849967879437,-0.02117098169838,-0.023259622204279,0.0067018511970687
2023-12-11 14:15:04.711073,-0.006405927731741,-0.0211274940569641,-0.0234088033594138,0.0065080474272792
2023-12-11 14:15:04.712072,-0.006527604473835,-0.0210837382210904,-0.0235589045359088,0.0063130484421307
2023-12-11 14:15:04.713074,-0.0066499537207061,-0.0210397405476383,-0.0237098353184279,0.0061169717017203
2023-12-11 14:15:04.714073,-0.0067729017737428,-0.0209955275391612,-0.0238615047919115,0.0059199353153447
2023-12-11 14:15:04.715072,-0.0068963745736355,-0.0209511258279221,-0.0240138215963399,0.0057220579703553
2023-12-11 14:15:04.715072,-0.0070202977449863,-0.0209065621598516,-0.0241666939817656,0.0055234588606658
2023-12-11 14:15:04.719070,-0.0071445966411106,-0.020861863378437,-0.0243200298635801,0.0053242576149536
2023-12-11 14:15:06.675074,-0.0072691963890012,-0.0208170564085529,-0.0244737368779816,0.0051245742246005
2023-12-11 14:15:07.093070,-0.0073940219344292,-0.0207721682402423,-0.0246277224376121,0.0049245289714144
2023-12-11 14:15:07.128071,-0.0075189980871534,-0.0207272259124596,-0.0247818937873285,0.0047242423551754
2023-12-11 14:15:07.674069,-0.0076440495662126,-0.0206822564967823,-0.0249361580600745,0.0045238350210521
2023-12-11 14:15:08.386068,-0.0077691010452718,-0.0206372870811051,-0.0250904223328204,0.0043234276869288
2023-12-11 14:15:09.421068,-0.007894077197996,-0.0205923447533223,-0.0252445936825368,0.0041231410706898
2023-12-11 14:15:10.544069,-0.0080189027434239,-0.0205474565850118,-0.0253985792421673,0.0039230958175036
2023-12-11 14:15:11.184077,-0.0081435024913146,-0.0205026496151276,-0.0255522862565688,0.0037234124271506
2023-12-11 14:15:11.388069,-0.0082678013874389,-0.020457950833713,-0.0257056221383833,0.0035242111814384
2023-12-11 14:15:12.347068,-0.0083917245587897,-0.0204133871656425,-0.025858494523809,0.0033256120717488
2023-12-11 14:15:12.933070,-0.0085151973586823,-0.0203689854544034,-0.0260108113282375,0.0031277347267595
2023-12-11 14:15:13.329066,-0.0086381454117191,-0.0203247724459263,-0.026162480801721,0.0029306983403839
2023-12-11 14:15:14.342104,-0.0087604946585901,-0.0202807747724743,-0.0263134115842401,0.0027346215999735
2023-12-11 14:15:15.157067,-0.0088821714006841,-0.0202370189366005,-0.0264635127607352,0.002539622614825
2023-12-11 14:15:15.349071,-0.0090031023444814,-0.0201935312951846,-0.02661269391587,0.0023458188450354
2023-12-11 14:15:15.477070,-0.0091232146457033,-0.0201503380435555,-0.0267608651884949,0.0021533270307491
2023-12-11 14:15:15.852069,-0.0092424359531908,-0.0201074651997128,-0.026907937325776,0.0019622631218371
2023-12-11 14:15:16.920068,-0.0093606944524864,-0.0200649385886547,-0.0270538217369569,0.0017727422080539
2023-12-11 14:15:17.284070,-0.0094779189090919,-0.0200227838268215,-0.0271984305467234,0.0015848784497112
2023-12-11 14:15:17.385072,-0.0095940387113781,-0.0199810263066654,-0.0273416766481358,0.0013987850089124
2023-12-11 14:15:17.460068,-0.0097089839131181,-0.0199396911813551,-0.0274834737550989,0.0012145739813878
2023-12-11 14:15:18.044067,-0.0098226852756203,-0.0198988033496245,-0.0276237364543375,0.0010323563289723
2023-12-11 14:15:18.162069,-0.0099350743094356,-0.0198583874407746,-0.0277623802568465,0.000852241812766
2023-12-11 14:15:18.244071,-0.0100460833156125,-0.0198184677998375,-0.0278993216487834,0.0006743389270188
2023-12-11 14:15:18.513070,-0.0101556454264766,-0.0197790684729124,-0.0280344781417743,0.0004987548337766
2023-12-11 14:15:18.933076,-0.0102636946459092,-0.0197402131926804,-0.0281677683226016,0.0003255952983318
2023-12-11 14:15:19.273112,-0.0103701658891005,-0.0197019253641096,-0.0282991119022445,0.0001549646255137
2023-12-11 14:15:19.303101,-0.010474995021755,-0.0196642280503562,-0.0284284297642418,-1.3034403140696536e-05
2023-12-11 14:15:19.459113,-0.0105781188987229,-0.0196271439588723,-0.0285556440123489,-0.0001783005912984
2023-12-11 14:15:19.517071,-0.0106794754020369,-0.0195906954277281,-0.0286806780174597,-0.0003407343887875
2023-12-11 14:15:19.786073,-0.0107790034783292,-0.0195549044121558,-0.0288034564637648,-0.000500237951562
2023-12-11 14:15:20.250076,-0.0108766431756084,-0.0195197924713249,-0.0289239053941191,-0.0006567152006401
2023-12-11 14:15:20.487082,-0.0109723356793717,-0.0194853807553556,-0.0290419522545908,-0.0008100718799778
2023-12-11 14:15:20.968070,-0.0110660233480331,-0.0194516899925788,-0.0291575259381653,-0.000960215613246
2023-12-11 14:15:21.357071,-0.0111576497476441,-0.0194187404770503,-0.0292705568275772,-0.0011070559594739
2023-12-11 14:15:21.605106,-0.0112471596858879,-0.0193865520563262,-0.0293809768372451,-0.0012505044675278
2023-12-11 14:15:21.940069,-0.0113344992453245,-0.0193551441195076,-0.0294887194542841,-0.0013904747293902
2023-12-11 14:15:22.006066,-0.0114196158158692,-0.019324535585561,-0.0295937197785705,-0.0015268824322092
2023-12-11 14:15:22.871072,-0.0115024581264826,-0.019294744891923,-0.0296959145618352,-0.0016596454090852
2023-12-11 14:15:22.908070,-0.0115829762760545,-0.0192657899833933,-0.0297952422457619,-0.0017886836885654
2023-12-11 14:15:22.971069,-0.0116611217634624,-0.0192376883013261,-0.029891642999068,-0.0019139195428152
2023-12-11 14:15:23.683986,-0.0117368475167866,-0.0192104567731241,-0.0299850587535444,-0.0020352775344388
2023-12-11 14:15:24.022980,-0.011810107921665,-0.0191841118020414,-0.0300754332390336,-0.0021526845619201
2023-12-11 14:15:24.170976,-0.011880858848769,-0.0191586692573036,-0.0301627120173249,-0.0022660699036557
2023-12-11 14:15:24.193978,-0.0119490576803857,-0.0191341444645482,-0.0302468425149457,-0.0023753652605555
2023-12-11 14:15:24.350978,-0.0120146633360891,-0.0191105521965935,-0.0303277740548303,-0.0024805047971835
2023-12-11 14:15:24.412978,-0.0120776362974853,-0.0190879066645394,-0.0304054578868451,-0.002581425181414
2023-12-11 14:15:24.512981,-0.012137938632017,-0.0190662215092076,-0.0304798472171545,-0.0026780656225814
2023-12-11 14:15:24.871986,-0.0121955340158128,-0.0190455097929249,-0.0305508972364076,-0.0027703679080975
2023-12-11 14:15:24.953023,-0.0122503877555671,-0.0190257839916547,-0.0306185651467295,-0.0028582764385168
2023-12-11 14:15:25.015976,-0.0123024668094383,-0.0190070559874821,-0.0306828101875013,-0.0029417382610279
2023-12-11 14:15:25.252977,-0.0123517398069516,-0.0189893370614565,-0.0307435936599127,-0.0030207031013496
2023-12-11 14:15:25.624979,-0.0123981770678957,-0.0189726378867964,-0.0308008789502728,-0.0030951233940148
2023-12-11 14:15:25.819009,-0.0124417506202011,-0.0189569685224603,-0.0308546315520646,-0.003164954311022
2023-12-11 14:15:25.997977,-0.0124824342167892,-0.0189423384070872,-0.0309048190867309,-0.0032301537888379
2023-12-11 14:15:27.213976,-0.0125202033513826,-0.0189287563533116,-0.0309514113231773,-0.003290682553735
2023-12-11 14:15:27.352976,-0.012555035273267,-0.0189162305424548,-0.0309943801959828,-0.0033465041454487
2023-12-11 14:15:27.559979,-0.012586909000995,-0.0189047685195969,-0.0310336998223051,-0.0033975849391394
2023-12-11 14:15:27.821984,-0.0126158053350249,-0.018894377189032,-0.0310693465174717,-0.0034438941656471
2023-12-11 14:15:28.092975,-0.0126417068692856,-0.0188850628101089,-0.0311012988092462,-0.0034854039300253
2023-12-11 14:15:28.852997,-0.0126645980016614,-0.0188768309934613,-0.0311295374507629,-0.0035220892283441
2023-12-11 14:15:29.261980,-0.0126844649433901,-0.0188696866976276,-0.03115404543212,-0.0035539279627516
2023-12-11 14:15:29.406978,-0.0127012957273688,-0.0188636342260646,-0.0311748079906259,-0.0035809009547846
2023-12-11 14:15:29.431976,-0.0127150802153627,-0.0188586772245549,-0.0311918126196919,-0.0036029919569214
2023-12-11 14:15:29.639980,-0.0127258101041116,-0.0188548186790107,-0.0312050490763651,-0.0036201876623683
2023-12-11 14:15:29.702013,-0.0127334789303317,-0.0188520609136756,-0.031214509387499,-0.0036324777130753
2023-12-11 14:15:29.824979,-0.0127380820746088,-0.0188504055897244,-0.031220187854556,-0.0036398547059755
2023-12-11 14:15:29.843014,-0.0131710315312237,-0.0155640022548769,-0.0268385224258159,-0.0061286461371672
2023-12-11 14:15:29.992974,-0.013170243962508,-0.0155588637274533,-0.0268290378093852,-0.0061304924566965
2023-12-11 14:15:30.811974,-0.0131678817307629,-0.0155434512404393,-0.0268005896732713,-0.0061360303031302
2023-12-11 14:15:31.016996,-0.0131639462589085,-0.0155177740777407,-0.0267531951535676,-0.006145256340677
2023-12-11 14:15:31.127982,-0.0131584399175258,-0.0154818477063202,-0.0266868827989607,-0.0061581650119167
2023-12-11 14:15:31.291975,-0.013151366023429,-0.0154356937668807,-0.0266016925535334,-0.0061747485411484
2023-12-11 14:15:31.390975,-0.0131427288376674,-0.0153793400608293,-0.026497675732704,-0.0061949969390743
2023-12-11 14:15:32.055979,-0.0131325335629588,-0.0153128205335315,-0.026374894992316,-0.0062188980088166
2023-12-11 14:15:32.063975,-0.0131207863405553,-0.0152361752538632,-0.0262334242908963,-0.0062464373532645
2023-12-11 14:15:32.065976,-0.0131074942465446,-0.0151494503900748,-0.0260733488451056,-0.0062775983837468
2023-12-11 14:15:32.066976,-0.013092665287587,-0.0150526981819814,-0.0258947650784067,-0.0063123623300239
2023-12-11 14:15:32.068977,-0.0130763083960929,-0.0149459769094955,-0.0256977805629831,-0.0063507082515944
2023-12-11 14:15:32.069979,-0.0130584334248421,-0.014829350857521,-0.025482513954941,-0.006392613050309
2023-12-11 14:15:32.069979,-0.0130390511410489,-0.0147028902772307,-0.025249094922836,-0.0064380514842839
2023-12-11 14:15:32.071978,-0.0130181732198763,-0.0145666713437495,-0.0249976640695647,-0.0064869961831056
2023-12-11 14:15:32.071978,-0.0129958122374034,-0.0144207761102693,-0.0247283728476717,-0.0065394176643176
2023-12-11 14:15:32.072977,-0.0129719816630499,-0.0142652924586235,-0.0244413834681195,-0.0065952843511798
2023-12-11 14:15:32.073977,-0.0129466958514626,-0.0141003140463498,-0.0241368688025791,-0.006654562591689
2023-12-11 14:15:32.074979,-0.012919970033869,-0.0139259402502749,-0.0238150122792986,-0.0067172166788498
2023-12-11 14:15:32.074979,-0.0128918203089023,-0.0137422761066533,-0.0234760077726125,-0.0067832088721827
2023-12-11 14:15:32.074979,-0.0128622636329041,-0.0135494322478975,-0.0231200594861595,-0.0068524994204582
2023-12-11 14:15:32.075977,-0.012831317809711,-0.0133475248359371,-0.0227473818298777,-0.0069250465856408
2023-12-11 14:15:32.075977,-0.0127990014799296,-0.0131366754922472,-0.0223581992908517,-0.0070008066680311
2023-12-11 14:15:32.677974,-0.0127653341097087,-0.0129170112245883,-0.0219527462980907,-0.0070797340325881
2023-12-11 14:15:33.071978,-0.0127303359790132,-0.0126886643505015,-0.0215312670813167,-0.0071617811364189
2023-12-11 14:15:33.297974,-0.0126940281694082,-0.0124517724176053,-0.0210940155238496,-0.0072468985574159
2023-12-11 14:15:35.699009,-0.0126564325513608,-0.0122064781207421,-0.0206412550096778,-0.0073350350240276
2023-12-11 14:15:36.877991,-0.0126175717710653,-0.0119529292160241,-0.0201732582648054,-0.007426137446142
2023-12-11 14:15:37.077979,-0.0125774692368029,-0.0116912784318309,-0.0196903071929717,-0.0075201509470666
2023-12-11 14:15:37.269978,-0.0125361491048405,-0.011421683376811,-0.0191926927058439,-0.007617018896584
2023-12-11 14:15:37.892015,-0.0124936362648806,-0.0111443064449448,-0.0186807145477819,-0.0077166829450633
2023-12-11 14:15:38.184977,-0.0124499563250684,-0.0108593147177242,-0.0181546811152841,-0.0078190830586084
2023-12-11 14:15:38.626978,-0.0124051355965663,-0.0105668798635091,-0.0176149092712206,-0.0079241575552201
2023-12-11 14:15:38.749977,-0.0123592010777051,-0.010267178034121,-0.0170617241539668,-0.0080318431419504
2023-12-11 14:15:38.864979,-0.0123121804377215,-0.0099603897587353,-0.0164954589815525,-0.0081420749530286
2023-12-11 14:15:39.144977,-0.0122641020000908,-0.0096466998351375,-0.0159164548509434,-0.0082547865889334
2023-12-11 14:15:39.233978,-0.012214994725466,-0.009326297218408,-0.0153250605325776,-0.0083699101563901
2023-12-11 14:15:39.731986,-0.0121648881942331,-0.0089993749071024,-0.0147216322602787,-0.0084873763092663
2023-12-11 14:15:40.018984,-0.0121138125886929,-0.0086661298269966,-0.0141065335166744,-0.0086071142903438
2023-12-11 14:15:40.438979,-0.0120617986748803,-0.0083267627124662,-0.0134801348142478,-0.0087290519739402
2023-12-11 14:15:40.575979,-0.0120088777840322,-0.0079814779855711,-0.0128428134721545,-0.0088531159093544
2023-12-11 14:15:40.765981,-0.0119550817937143,-0.0076304836329198,-0.0121949533889403,-0.0089792313651107
2023-12-11 14:15:41.213978,-0.0119004431086197,-0.0072739910803858,-0.0115369448112941,-0.0091073223739744
2023-12-11 14:15:41.387976,-0.0118449946410491,-0.0069122150657526,-0.0108691840989785,-0.0092373117787114
2023-12-11 14:15:41.454983,-0.011788769791086,-0.0065453735093638,-0.0101920734860776,-0.0093691212785648
2023-12-11 14:15:41.588977,-0.0117318024264778,-0.0061736873828558,-0.0095060208387056,-0.0095026714764206
2023-12-11 14:15:41.620983,-0.0116741268622347,-0.0057973805760531,-0.0088114394093243,-0.0096378819266334
2023-12-11 14:15:42.085980,-0.0116157778399599,-0.005416679762105,-0.0081087475878146,-0.0097746711834838
2023-12-11 14:15:42.134985,-0.0115567905069227,-0.0050318142609464,-0.0073983686494545,-0.0099129568502384
2023-12-11 14:15:42.476976,-0.0114972003948869,-0.0046430159011644,-0.0066807304999535,-0.0100526556287824
2023-12-11 14:15:42.596978,-0.0114370433987076,-0.0042505188803527,-0.0059562654176989,-0.0101936833697952
2023-12-11 14:15:43.193979,-0.01137635575471,-0.0038545596240401,-0.0052254097933666,-0.0103359551234391
2023-12-11 14:15:43.468978,-0.0113151740188616,-0.003455376643277,-0.0044886038670563,-0.0104793851905294
2023-12-11 14:15:44.013003,-0.0112535350447522,-0.0030532103909644,-0.0037462914631071,-0.0106238871741571
2023-12-11 14:15:44.342976,-0.0111914759613952,-0.0026483031170147,-0.0029989197227541,-0.0107693740317304
2023-12-11 14:15:44.577984,-0.0111290341508617,-0.0022408987224295,-0.0022469388347879,-0.0109157581274064
2023-12-11 14:15:45.043985,-0.0110662472257636,-0.001831242612382,-0.0014908017643769,-0.0110629512848796
2023-12-11 14:15:45.585979,-0.0110031530065968,-0.001419581548395,-0.0007309639802185,-0.0112108648404957
2023-12-11 14:15:45.618976,-0.0109397894989597,-0.0010061634997005,3.2116819818125254e-05,-0.0113594096966599
2023-12-11 14:15:46.019001,-0.0108761948706599,-0.0005912374938722,0.0007979809843926,-0.011508496375505
2023-12-11 14:15:46.313979,-0.0108124074287236,-0.000175053466821,0.0015661671855697,-0.0116580350727905
2023-12-11 14:15:46.445978,-0.0107484655963207,0.0002421378877572,0.0023362126967061,-0.0118079357119969
2023-12-11 14:15:46.503983,-0.01068440788962,0.0006600852693904,0.0031076536711798,-0.0119581079985841
2023-12-11 14:15:46.982975,-0.0106202728945888,0.0010785369222039,0.0038800254217938,-0.012108461474382
2023-12-11 14:15:47.471983,-0.01055609924375,0.001497240786569,0.0046528627006863,-0.0122589055720789
2023-12-11 14:15:47.643016,-0.0104919255929112,0.0019159446509341,0.0054256999795788,-0.0124093496697758
2023-12-11 14:15:47.679018,-0.01042779059788,0.0023343963037476,0.0061980717301928,-0.0125597031455737
2023-12-11 14:15:48.085980,-0.0103637328911793,0.0027523436853808,0.0069695127046665,-0.0127098754321609
2023-12-11 14:15:48.550013,-0.0102997910587764,0.0031695350399592,0.0077395582158029,-0.0128597760713673
2023-12-11 14:15:48.647980,-0.0102360036168401,0.0035857190670103,0.00850774441698,-0.0130093147686528
2023-12-11 14:15:49.117977,-0.0101724089885403,0.0040006450728386,0.0092736085815545,-0.0131584014474979
2023-12-11 14:15:49.347644,-0.0101090454809032,0.0044140631215332,0.0100366893815912,-0.0133069463036621
2023-12-11 14:15:49.439638,-0.0100459512617364,0.0048257241855201,0.0107965271657495,-0.0134548598592782
2023-12-11 14:15:49.683635,-0.0099831643366383,0.0052353802955676,0.0115526642361606,-0.0136020530167514
2023-12-11 14:15:50.073638,-0.0099207225261048,0.0056427846901529,0.0123046451241268,-0.0137484371124274
2023-12-11 14:15:50.202642,-0.0098586634427477,0.0060476919641025,0.0130520168644797,-0.0138939239700007
2023-12-11 14:15:50.306636,-0.0097970244686384,0.0064498582164151,0.013794329268429,-0.0140384259536284
2023-12-11 14:15:50.378636,-0.00973584273279,0.0068490411971783,0.0145311351947393,-0.0141818560207187
2023-12-11 14:15:50.405638,-0.0096751550887924,0.0072450004534908,0.0152619908190716,-0.0143241277743626
2023-12-11 14:15:50.523637,-0.0096149980926131,0.0076374974743025,0.0159864559013262,-0.0144651555153754
2023-12-11 14:15:50.817636,-0.0095554079805773,0.0080262958340846,0.0167040940508271,-0.0146048542939194
2023-12-11 14:15:51.192378,-0.0094964206475401,0.0084111613352431,0.0174144729891873,-0.014743139960674
2023-12-11 14:15:51.565376,-0.0094380716252653,0.0087918621491912,0.018117164810697,-0.0148799292175244
2023-12-11 14:15:51.858380,-0.0093803960610222,0.0091681689559939,0.0188117462400783,-0.0150151396677372
2023-12-11 14:15:51.922376,-0.009323428696414,0.0095398550825019,0.0194977988874502,-0.015148689865593
2023-12-11 14:15:52.039377,-0.0092672038464509,0.0099066966388907,0.0201749095003512,-0.0152804993654464
2023-12-11 14:15:52.249376,-0.0092117553788803,0.0102684726535239,0.0208426702126667,-0.0154104887701834
2023-12-11 14:15:52.281376,-0.0091571166937856,0.0106249652060579,0.021500678790313,-0.0155385797790471
2023-12-11 14:15:52.361392,-0.0091033207034678,0.0109759595587092,0.0221485388735272,-0.0156646952348034
2023-12-11 14:15:52.591382,-0.0090503998126196,0.0113212442856043,0.0227858602156204,-0.0157887591702176
2023-12-11 14:15:52.792375,-0.0089983858988071,0.0116606114001348,0.0234122589180471,-0.015910696853814
2023-12-11 14:15:52.875378,-0.0089473102932669,0.0119938564802405,0.0240273576616514,-0.0160304348348915
2023-12-11 14:15:53.609378,-0.008897203762034,0.0123207787915461,0.0246307859339503,-0.0161479009877677
2023-12-11 14:15:53.707380,-0.0088480964874092,0.0126411814082756,0.0252221802523161,-0.0162630245552244
2023-12-11 14:15:53.927378,-0.0088000180497784,0.0129548713318734,0.0258011843829251,-0.0163757361911292
2023-12-11 14:15:54.844380,-0.0087529974097948,0.0132616596072592,0.0263674495553395,-0.0164859680022074
2023-12-11 14:15:55.096376,-0.0087070628909337,0.0135613614366473,0.0269206346725933,-0.0165936535889377
2023-12-11 14:15:55.157379,-0.0086622421624316,0.0138537962908623,0.0274604065166568,-0.0166987280855494
2023-12-11 14:15:55.236376,-0.0086185622226193,0.0141387880180829,0.0279864399491546,-0.0168011281990946
2023-12-11 14:15:55.512381,-0.0085760493826595,0.0144161649499491,0.0284984181072166,-0.0169007922475739
2023-12-11 14:15:56.012418,-0.0085347292506971,0.014685760004969,0.0289960325943444,-0.0169976601970912
2023-12-11 14:15:57.532375,-0.0084946267164346,0.0149474107891622,0.029478983666178,-0.0170916736980158
2023-12-11 14:15:57.752374,-0.0084557659361392,0.0152009596938802,0.0299469804110505,-0.0171827761201302
2023-12-11 14:15:57.857376,-0.0084181703180918,0.0154462539907434,0.0303997409252223,-0.0172709125867419
2023-12-11 14:15:57.885377,-0.0083818625084868,0.0156831459236396,0.0308369924826893,-0.0173560300077389
2023-12-11 14:15:58.138380,-0.0083468643777913,0.0159114927977264,0.0312584716994634,-0.0174380771115697
2023-12-11 14:15:58.290377,-0.0083131970075704,0.0161311570653853,0.0316639246922244,-0.0175170044761267
2023-12-11 14:15:58.392377,-0.008280880677789,0.0163420064090752,0.0320531072312503,-0.017592764558517
2023-12-11 14:15:58.412379,-0.0082499348545959,0.0165439138210356,0.0324257848875322,-0.0176653117236996
2023-12-11 14:15:58.414378,-0.0082203781785977,0.0167367576797915,0.0327817331739852,-0.0177346022719751
2023-12-11 14:15:58.415379,-0.008192228453631,0.016920421823413,0.0331207376806712,-0.017800594465308
2023-12-11 14:15:58.416378,-0.0081655026360374,0.0170947956194879,0.0334425942039518,-0.0178632485524688
2023-12-11 14:15:58.417379,-0.0081402168244501,0.0172597740317616,0.0337471088694921,-0.017922526792978
2023-12-11 14:15:58.418381,-0.0081163862500966,0.0174152576834074,0.0340340982490444,-0.0179783934798402
2023-12-11 14:15:58.419380,-0.0080940252676237,0.0175611529168876,0.0343033894709374,-0.0180308149610522
2023-12-11 14:15:58.420380,-0.0080731473464511,0.0176973718503688,0.0345548203242087,-0.0180797596598739
2023-12-11 14:15:58.423381,-0.0080537650626579,0.0178238324306592,0.0347882393563137,-0.0181251980938488
2023-12-11 14:15:58.424379,-0.0080358900914071,0.0179404584826337,0.0350035059643557,-0.0181671028925634
2023-12-11 14:15:58.425376,-0.008019533199913,0.0180471797551196,0.0352004904797794,-0.0182054488141339
2023-12-11 14:15:58.427378,-0.0080047042409554,0.0181439319632129,0.0353790742464783,-0.018240212760411
2023-12-11 14:15:58.428380,-0.0079914121469447,0.0182306568270013,0.035539149692269,-0.0182713737908933
2023-12-11 14:15:58.429380,-0.0079796649245412,0.0183073021066696,0.0356806203936887,-0.0182989131353412
2023-12-11 14:15:58.430379,-0.0079694696498325,0.0183738216339675,0.0358034011340767,-0.0183228142050835
2023-12-11 14:15:58.431380,-0.007960832464071,0.0184301753400188,0.0359074179549061,-0.0183430626030094
2023-12-11 14:15:58.433378,-0.0079537585699742,0.0184763292794584,0.0359926082003334,-0.0183596461322411
2023-12-11 14:15:58.434381,-0.0079482522285915,0.0185122556508788,0.0360589205549403,-0.0183725548034808
2023-12-11 14:15:58.436378,-0.0079443167567371,0.0185379328135774,0.036106315074644,-0.0183817808410276
2023-12-11 14:15:58.436378,-0.007941954524992,0.0185533453005914,0.0361347632107579,-0.0183873186874613
2023-12-11 14:15:58.437378,-0.0021228457062195,0.0213373747595441,0.0383863141353685,-0.0180812875478572
2023-12-11 14:15:58.438379,-0.0021135571498502,0.0213370486945852,0.0383807123125476,-0.0180789080484543
2023-12-11 14:15:58.438379,-0.0020856970758214,0.021336070696118,0.0383639102184137,-0.0180717709835671
2023-12-11 14:15:58.439378,-0.0020392822659998,0.0213344413532519,0.0383359179739199,-0.0180598806522966
2023-12-11 14:15:58.440378,-0.0019743406789315,0.0213321616474424,0.0382967524405477,-0.0180432442169338
2023-12-11 14:15:58.441378,-0.001890911433,0.0213292329518989,0.0382464372101498,-0.0180218716986453
2023-12-11 14:15:58.442378,-0.0017890447828635,0.0213256570307582,0.0381850025907396,-0.0179957759714368
2023-12-11 14:15:58.443380,-0.0016688020891831,0.0213214360380213,0.0381124855882347,-0.0179649727543988
2023-12-11 14:15:58.444380,-0.0015302557816612,0.0213165725162566,0.0380289298841658,-0.0179294806022373
2023-12-11 14:15:58.445380,-0.0013734893154129,0.0213110693950676,0.0379343858093647,-0.0178893208940976
2023-12-11 14:15:58.445380,-0.0011985971206956,0.0213049299893288,0.0378289103136468,-0.0178445178206863
2023-12-11 14:15:58.446379,-0.0010056845460278,0.0212981579971886,0.0377125669315068,-0.0177950983696994
2023-12-11 14:15:58.446379,-0.0007948677947309,0.0212907574978419,0.0375854257438476,-0.0177410923095665
2023-12-11 14:15:58.447382,-0.0005662738549331,0.0212827329490727,0.0374475633357666,-0.0176825321715186
2023-12-11 14:15:58.448377,-0.0003200404230759,0.0212740891845693,0.0372990627504235,-0.0176194532299932
2023-12-11 14:15:58.448377,-5.631582097150948e-05,0.021264831411012,0.0371400134390181,-0.017551893481386
2023-12-11 14:15:58.449378,0.0002247410935411,0.0212549652049375,0.0369705112069082,-0.0174798936211634
2023-12-11 14:15:58.450380,0.0005229610222861,0.0212444965093795,0.0367906581559005,-0.0174034970193489
2023-12-11 14:15:58.451383,0.0008381643287295,0.0212334316302887,0.0366005626227477,-0.0173227496943988
2023-12-11 14:15:58.451383,0.0011701611461858,0.0212217772327345,0.0364003391138909,-0.0172377002854823
2023-12-11 14:15:58.452379,0.0015187514921862,0.0212095403368903,0.036190108236485,-0.0171484000231831
2023-12-11 14:15:58.453380,0.001883725388941,0.0211967283138044,0.0359699966257494,-0.0170549026986401
2023-12-11 14:15:58.454379,0.0022648629898219,0.0211833488809606,0.035740136868688,-0.0169572646311455
2023-12-11 14:15:58.456379,0.0026619347117899,0.0211694100976289,0.0355006674242234,-0.0168555446342203
2023-12-11 14:15:58.457379,0.0030747013736872,0.0211549203600111,0.0352517325397946,-0.0167498039801869
2023-12-11 14:15:58.457379,0.0035029143403109,0.0211398883961835,0.0349934821644678,-0.0166401063632616
2023-12-11 14:15:58.458381,0.0039463156721819,0.0211243232608389,0.0347260718586124,-0.016526517861187
2023-12-11 14:15:58.459378,0.0044046382809177,0.0211082343298328,0.0344496627001976,-0.0164091068954292
2023-12-11 14:15:58.460379,0.0048776060901166,0.0210916312945358,0.0341644211877647,-0.0162879441899638
2023-12-11 14:15:58.461378,0.0053649342016556,0.0210745241559954,0.0338705191401351,-0.016163102728674
2023-12-11 14:15:58.462380,0.0058663290673029,0.0210569232189121,0.0335681335929124,-0.016034657711388
2023-12-11 14:15:58.462380,0.0063814886655397,0.0210388390854324,0.0332574466918434,-0.0159026865085812
2023-12-11 14:15:58.463379,0.0069101026834871,0.0210202826487621,0.0329386455831001,-0.0157672686147717
2023-12-11 14:15:58.463379,0.0074518527038268,0.0210012650866047,0.0326119223005495,-0.0156284856006349
2023-12-11 14:15:58.464378,0.0080064123966038,0.0209817978544286,0.03227747365008,-0.0154864210638692
2023-12-11 14:15:58.469378,0.0085734477157957,0.0209618926785665,0.031935501091053,-0.0153411605788393
2023-12-11 14:15:58.470380,0.009152617100529,0.020941561549152,0.0315862106149507,-0.0151927916450299
2023-12-11 14:15:58.470380,0.0097435716808227,0.0209208167128973,0.0312298126212952,-0.0150414036343388
2023-12-11 14:15:58.472378,0.0103459554877349,0.020899670665716,0.0308665217909113,-0.0148870877372428
2023-12-11 14:15:58.666377,0.0109594056677851,0.0208781361451963,0.0304965569566109,-0.0147299369078682
2023-12-11 14:15:59.121380,0.011583552701523,0.0208562261229281,0.0301201409713762,-0.0145700458079983
2023-12-11 14:15:59.237374,0.0122180206261139,0.0208339537966895,0.0297375005741216,-0.0144075107500529
2023-12-11 14:16:00.540375,0.0128624272618043,0.020811332582497,0.0293488662531148,-0.0142424296390733
2023-12-11 14:16:01.849376,0.0135163844421328,0.0207883761065243,0.0289544721071386,-0.0140749019137481
2023-12-11 14:16:02.665380,0.014179498247747,0.020765098196894,0.0285545557044792,-0.0139050284865148
2023-12-11 14:16:09.667392,0.0148513692436858,0.0207415128753484,0.0281493579398237,-0.0137329116827738
2023-12-11 14:16:10.637469,0.0155315927199842,0.0207176343488035,0.0277391228891543,-0.0135586551792519
2023-12-11 14:16:13.636120,0.0162197589354552,0.0206934770007906,0.0273240976627258,-0.0133823639415511
2023-12-11 14:16:15.675038,0.0169154533645027,0.0206690553827929,0.0269045322562159,-0.0132041441609208
2023-12-11 14:16:20.806040,0.0176182569468165,0.02064438420548,0.0264806794001368,-0.0130241031902929
2023-12-11 14:16:20.951038,0.0183277463397981,0.0206194783298465,0.0260527944076001,-0.0128423494796159
2023-12-11 14:16:21.535037,0.0190434941735666,0.0205943527582606,0.0256211350205258,-0.012658992510529
2023-12-11 14:16:23.707044,0.0197650693083906,0.0205690226254271,0.0251859612543877,-0.0124741427304141
2023-12-11 14:16:23.806037,0.0204920370943902,0.0205435031892709,0.0247475352415905,-0.0122879114858668
2023-12-11 14:16:24.010042,0.0212239596333542,0.0205178098217461,0.0243061210735704,-0.0121004109556253
2023-12-11 14:16:24.403041,0.0219603960425135,0.0204919579995766,0.0238619846417167,-0.0119117540829977
2023-12-11 14:16:24.518040,0.0227009027201124,0.0204659632949334,0.0234153934772087,-0.0117220545078299
2023-12-11 14:16:24.942041,0.0234450336126175,0.0204398413660545,0.0229666165898647,-0.0115314264980526
2023-12-11 14:16:25.206043,0.0241923404834042,0.0204136079478132,0.0225159243061007,-0.0113399848808509
2023-12-11 14:16:25.243039,0.024942373182757,0.0203872788422396,0.0220635881060961,-0.0111478449734964
2023-12-11 14:16:25.415039,0.0256946799190234,0.0203608699090024,0.0216098804602639,-0.0109551225138849
2023-12-11 14:16:25.908038,0.0264488075307561,0.0203343970558556,0.0211550746651246,-0.0107619335908196
2023-12-11 14:16:26.123042,0.0272043017596802,0.020307876229056,0.0206994446786829,-0.010568394574084
2023-12-11 14:16:26.160039,0.0279607075243222,0.020281323403758,0.0202432649554056,-0.0103746220443449
2023-12-11 14:16:26.226039,0.0287175691941332,0.0202547545743906,0.0197868102809003,-0.0101807327229285
2023-12-11 14:16:26.406037,0.0294744308639442,0.0202281857450233,0.019330355606395,-0.0099868434015121
2023-12-11 14:16:26.868040,0.0302308366285862,0.0202016329197252,0.0188741758831177,-0.009793070871773
2023-12-11 14:16:27.270042,0.0309863308575103,0.0201751120929256,0.018418545896676,-0.0095995318550374
2023-12-11 14:16:27.721044,0.031740458469243,0.0201486392397788,0.0179637401015367,-0.0094063429319721
2023-12-11 14:16:28.070038,0.0324927652055094,0.0201222303065417,0.0175100324557044,-0.0092136204723606
2023-12-11 14:16:28.117037,0.0332427979048622,0.0200959012009681,0.0170576962556998,-0.0090214805650061
2023-12-11 14:16:28.406047,0.0339901047756489,0.0200696677827268,0.0166070039719359,-0.0088300389478044
2023-12-11 14:16:28.570039,0.034734235668154,0.0200435458538479,0.0161582270845919,-0.0086394109380271
2023-12-11 14:16:28.703039,0.0354747423457529,0.0200175511492046,0.0157116359200838,-0.0084497113628593
2023-12-11 14:16:28.764037,0.0362111787549122,0.0199916993270351,0.0152674994882301,-0.0082610544902317
2023-12-11 14:16:28.884039,0.0369431012938762,0.0199660059595104,0.0148260853202101,-0.0080735539599902
2023-12-11 14:16:29.009038,0.0376700690798758,0.0199404865233542,0.0143876593074129,-0.0078873227154429
2023-12-11 14:16:29.103041,0.0383916442146998,0.0199151563905207,0.0139524855412748,-0.007702472935328
2023-12-11 14:16:29.165038,0.0391073920484683,0.0198900308189348,0.0135208261542005,-0.0075191159662411
2023-12-11 14:16:29.240041,0.0398168814414499,0.0198651249433013,0.0130929411616638,-0.0073373622555641
2023-12-11 14:16:29.691037,0.0405196850237637,0.0198404537659884,0.0126690883055847,-0.0071573212849362
2023-12-11 14:16:32.048040,0.0412153794528112,0.0198160321479907,0.0122495228990747,-0.0069791015043059
2023-12-11 14:16:32.249039,0.0419035456682822,0.0197918747999778,0.0118344976726462,-0.0068028102666051
2023-12-11 14:16:33.999082,0.0425837691445806,0.0197679962734328,0.0114242626219768,-0.0066285537630832
2023-12-11 14:16:34.140037,0.0432556401405194,0.0197444109518873,0.0110190648573214,-0.0064564369593422
2023-12-11 14:16:34.176037,0.0439187539461336,0.019721133042257,0.010619148454662,-0.0062865635321089
2023-12-11 14:16:34.234038,0.0445727111264621,0.0196981765662842,0.0102247543086858,-0.0061190358067837
2023-12-11 14:16:34.269043,0.0452171177621525,0.0196755553520918,0.0098361199876789,-0.0059539546958041
2023-12-11 14:16:34.330043,0.0458515856867434,0.0196532830258532,0.0094534795904244,-0.0057914196378587
2023-12-11 14:16:34.505037,0.0464757327204813,0.0196313730035849,0.0090770636051897,-0.0056315285379888
2023-12-11 14:16:34.607073,0.0470891829005315,0.0196098384830652,0.0087070987708892,-0.0054743777086142
2023-12-11 14:16:34.794038,0.0476915667074437,0.019588692435884,0.0083438079405053,-0.0053200618115182
2023-12-11 14:16:35.236077,0.0482825212877374,0.0195679475996293,0.0079874099468498,-0.0051686738008271
2023-12-11 14:16:35.423039,0.0488616906724707,0.0195476164702148,0.0076381194707476,-0.0050203048670177
2023-12-11 14:16:36.663044,0.0494287259916625,0.0195277112943527,0.0072961469117205,-0.0048750443819878
2023-12-11 14:16:36.711047,0.0499832856844396,0.0195082440621765,0.0069616982612511,-0.0047329798452221
2023-12-11 14:16:36.777047,0.0505250357047793,0.0194892265000192,0.0066349749787005,-0.0045941968310853
2023-12-11 14:16:36.786041,0.0510536497227267,0.0194706700633488,0.0063161738699571,-0.0044587789372758
2023-12-11 14:16:36.787039,0.0515688093209635,0.0194525859298692,0.0060054869688882,-0.0043268077344691
2023-12-11 14:16:36.787039,0.0520702041866107,0.0194349849927859,0.0057031014216655,-0.004198362717183
2023-12-11 14:16:36.788039,0.0525575322981498,0.0194178778542455,0.0054091993740358,-0.0040735212558932
2023-12-11 14:16:36.788039,0.0530305001073487,0.0194012748189484,0.005123957861603,-0.0039523585504278
2023-12-11 14:16:36.789038,0.0534888227160845,0.0193851858879424,0.0048475487031881,-0.00383494758467
2023-12-11 14:16:36.789038,0.0539322240479555,0.0193696207525978,0.0045801383973327,-0.0037213590825954
2023-12-11 14:16:36.790042,0.0543604370145792,0.0193545887887701,0.0043218880220059,-0.0036116614656701
2023-12-11 14:16:36.790042,0.0547732036764765,0.0193400990511524,0.0040729531375772,-0.0035059208116367
2023-12-11 14:16:36.796041,0.0551702753984445,0.0193261602678207,0.0038334836931126,-0.0034042008147115
2023-12-11 14:16:36.797044,0.0555514129993254,0.0193127808349769,0.0036036239360512,-0.0033065627472169
2023-12-11 14:16:36.798042,0.0559163868960802,0.019299968811891,0.0033835123253156,-0.0032130654226739
2023-12-11 14:16:36.804040,0.0562649772420806,0.0192877319160467,0.0031732814479096,-0.0031237651603747
2023-12-11 14:16:36.804040,0.0565969740595368,0.0192760775184926,0.0029730579390528,-0.0030387157514582
2023-12-11 14:16:36.805041,0.0569121773659803,0.0192650126394017,0.0027829624059,-0.0029579684265081
2023-12-11 14:16:36.806040,0.0572103972947253,0.0192545439438437,0.0026031093548923,-0.0028815718246936
2023-12-11 14:16:36.806040,0.057491454209238,0.0192446777377693,0.0024336071227825,-0.002809571964471
2023-12-11 14:16:36.807040,0.0577551788113424,0.019235419964212,0.002274557811377,-0.0027420122158638
2023-12-11 14:16:36.807040,0.0580014122431996,0.0192267761997085,0.0021260572260339,-0.0026789332743384
2023-12-11 14:16:36.808042,0.0582300061829974,0.0192187516509394,0.001988194817953,-0.0026203731362905
2023-12-11 14:16:36.810046,0.0584408229342943,0.0192113511515927,0.0018610536302938,-0.0025663670761576
2023-12-11 14:16:36.811044,0.0586337355089621,0.0192045791594525,0.0017447102481537,-0.0025169476251707
2023-12-11 14:16:36.812044,0.0588086277036794,0.0191984397537137,0.0016392347524358,-0.0024721445517594
2023-12-11 14:16:36.813043,0.0589653941699277,0.0191929366325247,0.0015446906776347,-0.0024319848436197
2023-12-11 14:16:36.814044,0.0591039404774496,0.0191880731107599,0.0014611349735658,-0.0023964926914582
2023-12-11 14:16:36.815046,0.05922418317113,0.0191838521180231,0.0013886179710609,-0.0023656894744202
2023-12-11 14:16:36.816042,0.0593260498212665,0.0191802761968823,0.0013271833516508,-0.0023395937472117
2023-12-11 14:16:36.816042,0.059409479067198,0.0191773475013389,0.0012768681212529,-0.0023182212289232
2023-12-11 14:16:36.817047,0.0594744206542663,0.0191750677955293,0.0012377025878806,-0.0023015847935604
2023-12-11 14:16:36.818047,0.0595208354640879,0.0191734384526633,0.0012097103433869,-0.0022896944622899
2023-12-11 14:16:36.819043,0.0595486955381167,0.019172460454196,0.0011929082492529,-0.0022825573974027
2023-12-11 14:16:36.820043,0.0568904585884793,0.0189726346138889,-0.0011995579366475,-0.0005589414371559
2023-12-11 14:16:36.820043,0.0568765504314536,0.0189726151866338,-0.0011980896676216,-0.0005583401121706
2023-12-11 14:16:36.824039,0.0568348343381302,0.0189725569165704,-0.0011936857449742,-0.0005565364994305
2023-12-11 14:16:36.825041,0.056765335436724,0.0189724598387987,-0.0011863488214636,-0.0005535316853644
2023-12-11 14:16:36.826043,0.0566680955907744,0.0189723240117946,-0.0011760833165783,-0.0005493274799599
2023-12-11 14:16:36.884038,0.0565431733739286,0.0189721495173752,-0.0011628954138745,-0.0005439264156733
2023-12-11 14:16:37.906041,0.0563906440346588,0.0189719364606494,-0.0011467930572516,-0.0005373317459035
2023-12-11 14:16:45.828950,0.0562105994509355,0.0189716849699547,-0.0011277859461673,-0.0005295474430333
2023-12-11 14:16:46.781223,0.0560031480748838,0.0189713951967796,-0.0011058855297944,-0.0005205781960354
2023-12-11 14:16:46.845221,0.0557684148674555,0.0189710673156726,-0.001081105000125,-0.0005104294076489
2023-12-11 14:16:47.002218,0.0555065412231573,0.0189707015241371,-0.0010534592840234,-0.0004991071911245
2023-12-11 14:16:47.125217,0.0552176848848807,0.0189702980425123,-0.0010229650342354,-0.000486618366542
2023-12-11 14:16:47.315218,0.0549020198488828,0.0189698571138402,-0.0009896406193567,-0.0004729704567024
2023-12-11 14:16:47.449216,0.0545597362599777,0.01896937900372,-0.0009535061127687,-0.0004581716825962
2023-12-11 14:16:48.393253,0.0541910402970005,0.0189688640001472,-0.0009145832805472,-0.0004422309584516
2023-12-11 14:16:48.518214,0.0537961540486131,0.0189683124133408,-0.0008728955683508,-0.0004251578863647
2023-12-11 14:16:48.920248,0.0533753153795256,0.018967724575556,-0.0008284680872985,-0.0004069627505158
2023-12-11 14:16:49.113221,0.0529287777872161,0.0189671008408843,-0.0007813275988436,-0.0003876565109743
2023-12-11 14:16:49.185648,0.0524568102492331,0.0189664415850402,-0.0007315024986538,-0.0003672507970971
2023-12-11 14:16:49.288647,0.0519596970611736,0.0189657472051347,-0.0006790227995062,-0.0003457579005231
2023-12-11 14:16:49.361645,0.0514377376654336,0.0189650181194364,-0.0006239201132094,-0.0003231907677696
2023-12-11 14:16:49.647772,0.050891246470836,0.0189642547671191,-0.0005662276315611,-0.0002995629924336
2023-12-11 14:16:50.086169,0.0503205526632417,0.0189634576079978,-0.0005059801063549,-0.0002748888070033
2023-12-11 14:16:50.118172,0.0497260000072608,0.0189626271222514,-0.0004432138284474,-0.0002491830742854
2023-12-11 14:16:50.119169,0.0491079466391815,0.0189617638101333,-0.0003779666058972,-0.0002224612784522
2023-12-11 14:16:50.119169,0.0484667648512422,0.0189608681916705,-0.0003102777411916,-0.0001947395157142
2023-12-11 14:16:50.127174,0.0478028408673766,0.0189599408063502,-0.0002401880075716,-0.0001660344846248
2023-12-11 14:16:50.127174,0.047116574610567,0.0189589822127945,-0.0001677396244718,-0.0001363634760213
2023-12-11 14:16:50.156202,0.0464083794619452,0.0189579929884243,-9.297623208933818e-05,-0.0001057443626099
2023-12-11 14:16:50.660168,0.0456786820117877,0.0189569737291114,-1.5942865096040143e-05,-7.419558819954829e-05
2023-12-11 14:16:50.994169,0.0449279218025533,0.0189559250488196,6.331407448821575e-05,-4.173615659219908e-05
2023-12-11 14:16:51.132170,0.0441565510641193,0.0189548475792346,0.0001447468452466,-8.385620135769576e-06
2023-12-11 14:16:51.377165,0.0433650344413751,0.0189537419693838,0.000228306395123,2.583593205363546e-05
2023-12-11 14:16:52.889167,0.0425538487143376,0.0189526088852452,0.0003139423909691,6.090788619260389e-05
2023-12-11 14:16:52.922166,0.0417234825109565,0.0189514490093464,0.0004016032488631,9.680911624738718e-05
2023-12-11 14:16:52.980167,0.0408744360127834,0.0189502630403532,0.0004912361651821,0.0001335179966594
2023-12-11 14:16:53.045167,0.0400072206536809,0.018949051692649,0.0005827871484089,0.0001710124153718
2023-12-11 14:16:53.077171,0.039122358811754,0.0189478156959043,0.0006762010516544,0.0002092697871487
2023-12-11 14:16:53.798166,0.0382203834946892,0.0189465557946375,0.0007714216058764,0.0002482670671798
2023-12-11 14:16:53.883195,0.0373018380186904,0.0189452727477658,0.0008683914537734,0.000287980764962
2023-12-11 14:16:54.031171,0.0363672756812058,0.0189439673281488,0.0009670521843351,0.0003283869584486
2023-12-11 14:16:54.186167,0.035417259427642,0.0189426403221224,0.0010673443680266,0.0003694613084596
2023-12-11 14:16:54.247200,0.0344523615122666,0.0189412925290255,0.0011692075925865,0.0004111790733424
2023-12-11 14:16:54.508168,0.0334731631535041,0.0189399247607181,0.0012725804994173,0.0004535151238754
2023-12-11 14:16:54.638169,0.0324802541838311,0.0189385378410928,0.0013774008205452,0.0004964439584047
2023-12-11 14:16:54.813173,0.0314742326944838,0.0189371326055781,0.0014836054161284,0.0005399397182057
2023-12-11 14:16:55.028205,0.0304557046751898,0.0189357099006353,0.0015911303124896,0.000583976203059
2023-12-11 14:16:55.307212,0.0294252836491427,0.0189342705832488,0.0016999107406519,0.0006285268870329
2023-12-11 14:16:55.595171,0.0283835903034386,0.0189328155204094,0.001809881175353,0.0006735649344611
2023-12-11 14:16:55.949169,0.0273312521151976,0.0189313455885925,0.001920975374515,0.000719063216108
2023-12-11 14:16:57.876199,0.0262689029735948,0.0189298616732303,0.0020331264191465,0.0007649943255099
2023-12-11 14:16:57.963172,0.0251971827980294,0.0189283646681778,0.0021462667536518,0.0008113305954842
2023-12-11 14:16:58.022170,0.0241167371526608,0.0189268554751748,0.0022603282265239,0.0008580441147942
2023-12-11 14:16:58.030166,0.0230282168575454,0.0189253350033028,0.0023752421313966,0.0009051067449628
2023-12-11 14:16:58.033171,0.0219322775966066,0.0189238041684372,0.0024909392484306,0.0009524901372214
2023-12-11 14:16:58.066171,0.0208295795226753,0.0189222638926957,0.0026073498860087,0.0010001657495861
2023-12-11 14:16:58.173165,0.0197207868598388,0.0189207151038828,0.0027244039227157,0.0010481048640509
2023-12-11 14:16:58.594204,0.0186065675033367,0.018919158734931,0.0028420308495769,0.0010962786038856
2023-12-11 14:16:58.718171,0.017487592617246,0.0189175957233386,0.0029601598125298,0.0011446579510309
2023-12-11 14:17:00.014175,0.0163645362301969,0.0189160270106056,0.0030787196551044,0.0011932137635769
2023-12-11 14:17:00.098208,0.0152380748293633,0.0189144535416656,0.0031976389612846,0.0012419167933179
2023-12-11 14:17:00.241169,0.0141088869529719,0.0189128762643177,0.0033168460985271,0.0012907377033698
2023-12-11 14:17:00.365209,0.0129776527815763,0.0189112961286547,0.0034362692609099,0.0013396470858419
2023-12-11 14:17:00.395212,0.0118450537283419,0.0189097140864912,0.0035558365123855,0.0013886154795512
2023-12-11 14:17:00.645165,0.0107117720285877,0.0189081310907903,0.0036754758301124,0.0014376133877682
2023-12-11 14:17:00.749168,0.0095784903288334,0.0189065480950894,0.0037951151478394,0.0014866112959851
2023-12-11 14:17:01.059171,0.008445891275599,0.018904966052926,0.003914682399315,0.0015355796896944
2023-12-11 14:17:01.285203,0.0073146571042034,0.0189033859172629,0.0040341055616978,0.0015844890721665
2023-12-11 14:17:01.440168,0.006185469227812,0.018901808639915,0.0041533126989403,0.0016333099822184
2023-12-11 14:17:01.577166,0.0050590078269784,0.0189002351709751,0.0042722320051205,0.0016820130119594
2023-12-11 14:17:01.675169,0.0039359514399293,0.018898666458242,0.0043907918476951,0.0017305688245054
2023-12-11 14:17:02.170165,0.0028169765538386,0.0188971034466497,0.004508920810648,0.0017789481716507
2023-12-11 14:17:02.318170,0.0017027571973365,0.0188955470776978,0.0046265477375092,0.0018271219114855
2023-12-11 14:17:02.601167,0.0005939645345,0.0188939982888849,0.0047436017742162,0.0018750610259502
2023-12-11 14:17:03.580171,-0.0005087335394311,0.0188924580131434,0.0048600124117943,0.0019227366383149
2023-12-11 14:17:03.671167,-0.00160467280037,0.0188909271782779,0.0049757095288283,0.0019701200305735
2023-12-11 14:17:03.700170,-0.0026931930954853,0.0188894067064059,0.005090623433701,0.0020171826607421
2023-12-11 14:17:03.830169,-0.0037736387408539,0.0188878975134029,0.0052046849065731,0.0020638961800522
2023-12-11 14:17:03.972168,-0.0048453589164194,0.0188864005083504,0.0053178252410784,0.0021102324500264
2023-12-11 14:17:04.024167,-0.0059077080580222,0.0188849165929881,0.0054299762857099,0.0021561635594283
2023-12-11 14:17:04.316169,-0.0069600462462632,0.0188834466611713,0.0055410704848719,0.0022016618410752
2023-12-11 14:17:04.678169,-0.0080017395919673,0.0188819915983319,0.005651040919573,0.0022466998885034
2023-12-11 14:17:04.930171,-0.0090321606180144,0.0188805522809453,0.0057598213477353,0.0022912505724773
2023-12-11 14:17:05.529167,-0.0100506886373084,0.0188791295760026,0.0058673462440965,0.0023352870573306
2023-12-11 14:17:05.559168,-0.0110567101266557,0.0188777243404879,0.0059735508396797,0.0023787828171316
2023-12-11 14:17:05.560170,-0.0120496190963286,0.0188763374208626,0.0060783711608076,0.0024217116516609
2023-12-11 14:17:05.561170,-0.0130288174550912,0.0188749696525552,0.0061817440676384,0.0024640477021939
2023-12-11 14:17:05.562171,-0.0139937153704665,0.0188736218594582,0.0062836072921983,0.0025057654670767
2023-12-11 14:17:05.563168,-0.0149437316240304,0.0188722948534319,0.0063838994758898,0.0025468398170877
2023-12-11 14:17:05.564168,-0.015878293961515,0.0188709894338148,0.0064825602064515,0.0025872460105743
2023-12-11 14:17:05.565171,-0.0167968394375137,0.0188697063869432,0.0065795300543485,0.0026269597083565
2023-12-11 14:17:05.565171,-0.0176988147545786,0.0188684464856763,0.0066747506085705,0.0026659569883877
2023-12-11 14:17:05.566170,-0.0185836765965055,0.0188672104889317,0.006768164511816,0.0027042143601645
2023-12-11 14:17:05.566170,-0.019450891955608,0.0188659991412275,0.0068597154950428,0.0027417087788769
2023-12-11 14:17:05.567168,-0.0202999384537811,0.0188648131722343,0.0069493484113618,0.002778417659289
2023-12-11 14:17:05.567168,-0.0211303046571622,0.0188636532963355,0.0070370092692558,0.0028143188893438
2023-12-11 14:17:05.568169,-0.0219414903841997,0.0188625202121969,0.0071226452651019,0.0028493908434827
2023-12-11 14:17:05.568169,-0.0227330070069438,0.0188614146023461,0.0072062048149783,0.0028836123956721
2023-12-11 14:17:05.569166,-0.0235043777453778,0.0188603371327611,0.0072876375857367,0.0029169629321286
2023-12-11 14:17:05.569166,-0.0242551379546123,0.0188592884524692,0.007366894525321,0.0029494223637359
2023-12-11 14:17:05.569166,-0.0249848354047698,0.0188582691931564,0.0074439278923143,0.0029809711381463
2023-12-11 14:17:05.570168,-0.0256930305533915,0.0188572799687862,0.0075186912846968,0.0030115902515578
2023-12-11 14:17:05.570168,-0.0263792968102012,0.0188563213752305,0.0075911396677966,0.0030412612601612
2023-12-11 14:17:05.571169,-0.0270432207940668,0.0188553939899101,0.0076612294014166,0.0030699662912506
2023-12-11 14:17:05.571169,-0.0276844025820061,0.0188544983714474,0.0077289182661222,0.0030976880539886
2023-12-11 14:17:05.572168,-0.0283024559500854,0.0188536350593293,0.0077941654886724,0.0031244098498218
2023-12-11 14:17:05.572168,-0.0288970086060663,0.0188528045735828,0.0078569317665799,0.0031501155825397
2023-12-11 14:17:05.573169,-0.0294677024136606,0.0188520074144615,0.0079171792917861,0.00317478976797
2023-12-11 14:17:05.573169,-0.0300141936082582,0.0188512440621443,0.0079748717734344,0.003198417543306
2023-12-11 14:17:05.576172,-0.0305361530039981,0.0188505149764459,0.0080299744597312,0.0032209846760595
2023-12-11 14:17:05.577169,-0.0310332661920577,0.0188498205965404,0.0080824541588788,0.0032424775726335
2023-12-11 14:17:05.578174,-0.0315052337300407,0.0188491613406963,0.0081322792590686,0.0032628832865107
2023-12-11 14:17:05.578174,-0.0319517713223501,0.0188485376060247,0.0081794197475235,0.0032821895260522
2023-12-11 14:17:05.579173,-0.0323726099914377,0.0188479497682399,0.0082238472285758,0.0033003846619011
2023-12-11 14:17:05.583172,-0.0327674962398251,0.0188473981814334,0.0082655349407722,0.003317457733988
2023-12-11 14:17:05.584169,-0.0331361922028022,0.0188468831778607,0.0083044577729937,0.0033333984581326
2023-12-11 14:17:05.584169,-0.0334784757917073,0.0188464050677404,0.0083405922795817,0.0033481972322388
2023-12-11 14:17:05.585171,-0.0337941408277053,0.0188459641390684,0.0083739166944604,0.0033618451420784
2023-12-11 14:17:05.586209,-0.0340829971659819,0.0188455606574435,0.0084044109442484,0.0033743339666609
2023-12-11 14:17:05.587168,-0.03434487081028,0.018845194865908,0.00843205666035,0.0033856561831853
2023-12-11 14:17:05.588168,-0.0345796040177084,0.0188448669848011,0.0084568371900194,0.0033958049715718
2023-12-11 14:17:05.592168,-0.0347870553937601,0.018844577211626,0.0084787376063923,0.0034047742185697
2023-12-11 14:17:05.593171,-0.0349670999774833,0.0188443257209312,0.0084977447174766,0.0034125585214399
2023-12-11 14:17:05.593171,-0.0351196293167532,0.0188441126642054,0.0085138470740995,0.0034191531912097
2023-12-11 14:17:05.595170,-0.035244551533599,0.018843938169786,0.0085270349768033,0.0034245542554963
2023-12-11 14:17:05.900209,-0.0353417913795486,0.0188438023427819,0.0085373004816886,0.0034287584609008
2023-12-11 14:17:07.684200,-0.0354112902809548,0.0188437052650102,0.0085446374051992,0.0034317632749669
2023-12-11 14:17:09.186172,-0.0354530063742782,0.0188436469949469,0.0085490413278466,0.003433566887707
2023-12-11 14:17:09.683204,-0.0446503705380012,0.0115426238538067,0.0058688340619903,0.0018668826370614
2023-12-11 14:17:13.543167,-0.0446523662211828,0.0115299994576109,0.0058627216873941,0.0018635670986758
2023-12-11 14:17:14.949168,-0.0446583520686028,0.0114921338734877,0.0058443882454716,0.0018536224806756
2023-12-11 14:17:16.089169,-0.0446683244746105,0.011429049910249,0.0058138447796025,0.0018370547733267
2023-12-11 14:17:17.204165,-0.0446822774322015,0.0113407855673155,0.0057711096880286,0.0018138739563965
2023-12-11 14:17:17.780166,-0.0447002025366357,0.0112273940118269,0.0057162087127712,0.0017840939931423
2023-12-11 14:17:18.390165,-0.0447220889905005,0.0110889435466163,0.0056491749241248,0.0017477328219005
2023-12-11 14:17:20.129197,-0.0447479236102146,0.0109255175690669,0.0055700487007372,0.001704812345281
2023-12-11 14:17:20.370165,-0.044777690833969,0.0107372145208767,0.0054788777052866,0.001655358416974
2023-12-11 14:17:20.975167,-0.0448113727311013,0.0105241478287609,0.0053757168557715,0.0015994008261767
2023-12-11 14:17:21.459143,-0.0448489490128959,0.0102864458361276,0.0052606282924304,0.0015369732796494
2023-12-11 14:17:21.673145,-0.0448903970448059,0.010024251725769,0.0051336813403102,0.0014681133814119
2023-12-11 14:17:21.854178,-0.0449356918600866,0.0097377234336132,0.0049949524675082,0.001392862610092
2023-12-11 14:17:22.242143,-0.0449848061748351,0.0094270335535892,0.0048445252391098,0.0013112662939405
2023-12-11 14:17:22.377150,-0.0450377104044245,0.0090923692336635,0.0046824902668526,0.0012233735835272
2023-12-11 14:17:22.565153,-0.0450943726813253,0.0087339320631083,0.0045089451545451,0.0011292374221344
2023-12-11 14:17:22.720146,-0.0451547588743005,0.0083519379510725,0.0043239944392736,0.0010289145138656
2023-12-11 14:17:22.878180,-0.0452188326089656,0.0079466169965255,0.0041277495284333,0.0009224652894895
2023-12-11 14:17:22.959145,-0.0452865552896985,0.0075182133496543,0.0039203286326203,0.0008099538700385
2023-12-11 14:17:23.374144,-0.0453578861228888,0.0070669850647967,0.0037018566944264,0.0006914480281846
2023-12-11 14:17:23.752142,-0.0454327821415097,0.0065932039449991,0.0034724653131778,0.0005670191474157
2023-12-11 14:17:24.104144,-0.0455111982310002,0.0060971553782922,0.0032322926656653,0.0004367421790368
2023-12-11 14:17:25.339153,-0.0455930871564402,0.0055791381657842,0.002981483422911,0.0003006955970224
2023-12-11 14:17:25.508146,-0.045678399591003,0.0050394643416738,0.0027201886630243,0.0001589613507464
2023-12-11 14:17:25.572149,-0.045767084145668,0.0044784589852932,0.0024485657801983,1.1624815618937004e-05
2023-12-11 14:17:25.824170,-0.0458590874001756,0.0038964600252916,0.0021667783899008,-0.0001412252583405
2023-12-11 14:17:26.097144,-0.0459543539352056,0.0032938180360801,0.0018749962303191,-0.0002994967999629
2023-12-11 14:17:26.183143,-0.0460528263657594,0.0026708960266589,0.0015733950601157,-0.0004630944723896
2023-12-11 14:17:26.319148,-0.0461544453757271,0.0020280692219539,0.0012621565525579,-0.0006319197305001
2023-12-11 14:17:26.448148,-0.0462591497536169,0.0013657248367954,0.0009414681860847,-0.0008058708802717
2023-12-11 14:17:26.564146,-0.0463668764294265,0.0006842618426743,0.0006115231313768,-0.0009848431400361
2023-12-11 14:17:26.772184,-0.0464775605126348,-1.5909272583176476e-05,0.0002725201349977,-0.0011687287035965
2023-12-11 14:17:26.837146,-0.0465911353312886,-0.0007343667520783,-7.533660032370309e-05,-0.0013574168051651
2023-12-11 14:17:27.015144,-0.0467075324721642,-0.0014706778238904,-0.0004318375386973,-0.001550793786085
2023-12-11 14:17:27.853157,-0.0468266818219761,-0.0022243989617622,-0.0007967679372883,-0.0017487431632939
2023-12-11 14:17:27.886146,-0.0469485116096113,-0.0029950761522637,-0.0011699079756701,-0.0019511456994887
2023-12-11 14:17:28.125144,-0.0470729484493613,-0.0037822451682727,-0.0015510328882363,-0.0021578794749499
2023-12-11 14:17:28.358142,-0.0471999173851269,-0.0045854318486083,-0.0019399130995906,-0.0023688199609814
2023-12-11 14:17:28.530146,-0.0473293419355686,-0.0054041523836472,-0.002336314362835,-0.002583840094922
2023-12-11 14:17:29.430144,-0.047461144140177,-0.006237913606753,-0.0027399979006708,-0.0028028103566832
2023-12-11 14:17:29.486147,-0.0475952446062324,-0.0070862132913414,-0.0031507205492296,-0.0030255988467671
2023-12-11 14:17:29.668147,-0.0477315625566282,-0.0079485404534023,-0.0035682349045458,-0.0032520713657178
2023-12-11 14:17:29.787145,-0.0478700158785285,-0.0088243756592977,-0.0039922894715835,-0.0034820914949584
2023-12-11 14:17:29.950146,-0.0480105211728292,-0.0097131913386492,-0.0044226288157281,-0.0037155206789639
2023-12-11 14:17:30.107145,-0.0481529938043949,-0.0106144521021265,-0.0048589937166501,-0.0039522183087224
2023-12-11 14:17:30.344147,-0.0482973479530398,-0.011527615063946,-0.0053011213244498,-0.0041920418064325
2023-12-11 14:17:30.766141,-0.0484434966652224,-0.0124521301688849,-0.0057487453179885,-0.0044348467113866
2023-12-11 14:17:30.880144,-0.0485913519064234,-0.0133874405236139,-0.0062015960653104,-0.0046804867669891
2023-12-11 14:17:31.249148,-0.048740824614174,-0.0143329827321486,-0.0066594007860583,-0.0049288140088556
2023-12-11 14:17:31.317143,-0.0488918247517045,-0.0152881872352189,-0.0071218837157869,-0.0051796788539411
2023-12-11 14:17:31.683144,-0.049044261362178,-0.0162524786533494,-0.0075887662720727,-0.0054329301906434
2023-12-11 14:17:31.800149,-0.0491980426234806,-0.017225276133447,-0.0080597672223216,-0.005688415469827
2023-12-11 14:17:32.550142,-0.0493530759035305,-0.018205993698685,-0.0085346028531732,-0.0059459807967128
2023-12-11 14:17:33.598142,-0.049509267816077,-0.0191940406014735,-0.0090129871413985,-0.0062054710235789
2023-12-11 14:17:33.763146,-0.0496665242769523,-0.0201888216793037,-0.0094946319261904,-0.0064667298432157
2023-12-11 14:17:34.349150,-0.0498247505607447,-0.0211897377132516,-0.0099792470827403,-0.0067295998830792
2023-12-11 14:17:34.419144,-0.0499838513578572,-0.0221961857889249,-0.0104665406969988,-0.0069939228000869
2023-12-11 14:17:34.450148,-0.0501437308319187,-0.0232075596596364,-0.0109562192415138,-0.0072595393759972
2023-12-11 14:17:34.796146,-0.0503042926775125,-0.0242232501115841,-0.0114479877522404,-0.0075262896133167
2023-12-11 14:17:34.898146,-0.0504654401781865,-0.0252426453308188,-0.011941550006216,-0.007794012831677
2023-12-11 14:17:34.971145,-0.0506270762647119,-0.0262651312717782,-0.0124366086999944,-0.0080625477646222
2023-12-11 14:17:35.073143,-0.0507891035735544,-0.0272900920271646,-0.0129328656287299,-0.0083317326567498
2023-12-11 14:17:35.202143,-0.0509514245055215,-0.0283169101989447,-0.0134300218658048,-0.0086014053611462
2023-12-11 14:17:35.226143,-0.0511139412845534,-0.029344967270247,-0.0139277779428918,-0.0088714034370581
2023-12-11 14:17:35.242143,-0.0512765560166194,-0.0303736439779333,-0.0144258340303424,-0.0091415642477403
2023-12-11 14:17:35.244143,-0.0514391707486853,-0.0314023206856197,-0.014923890117793,-0.0094117250584226
2023-12-11 14:17:35.245148,-0.0516016875277173,-0.032430377756922,-0.0154216461948801,-0.0096817231343345
2023-12-11 14:17:35.246145,-0.0517640084596844,-0.0334571959287021,-0.015918802431955,-0.0099513958387309
2023-12-11 14:17:35.246145,-0.0519260357685268,-0.0344821566840884,-0.0164150593606905,-0.0102205807308585
2023-12-11 14:17:35.247150,-0.0520876718550523,-0.0355046426250478,-0.0169101180544689,-0.0104891156638036
2023-12-11 14:17:35.248146,-0.0522488193557262,-0.0365240378442826,-0.0174036803084445,-0.010756838882164
2023-12-11 14:17:35.248146,-0.05240938120132,-0.0375397282962303,-0.0178954488191711,-0.0110235891194835
2023-12-11 14:17:35.248146,-0.0525692606753816,-0.0385511021669418,-0.0183851273636861,-0.0112892056953938
2023-12-11 14:17:35.249149,-0.052728361472494,-0.0395575502426151,-0.0188724209779446,-0.0115535286124015
2023-12-11 14:17:35.249149,-0.0528865877562864,-0.0405584662765629,-0.0193570361344945,-0.011816398652265
2023-12-11 14:17:35.250149,-0.0530438442171617,-0.0415532473543931,-0.0198386809192864,-0.0120776574719018
2023-12-11 14:17:35.251146,-0.0532000361297082,-0.0425412942571816,-0.0203170652075117,-0.0123371476987679
2023-12-11 14:17:35.251146,-0.0533550694097582,-0.0435220118224196,-0.0207919008383633,-0.0125947130256537
2023-12-11 14:17:35.252150,-0.0535088506710607,-0.0444948093025173,-0.0212629017886122,-0.0128501983048373
2023-12-11 14:17:35.253147,-0.0536612872815343,-0.0454591007206478,-0.021729784344898,-0.0131034496415396
2023-12-11 14:17:35.254147,-0.0538122874190647,-0.046414305223718,-0.0221922672746266,-0.0133543144866251
2023-12-11 14:17:35.254147,-0.0539617601268154,-0.0473598474322528,-0.0226500719953745,-0.0136026417284916
2023-12-11 14:17:35.255152,-0.0541096153680163,-0.0482951577869817,-0.0231029227426964,-0.0138482817840941
2023-12-11 14:17:35.255152,-0.0542557640801989,-0.0492196728919206,-0.0235505467362351,-0.0140910866890482
2023-12-11 14:17:35.255152,-0.0544001182288438,-0.0501328358537402,-0.0239926743440348,-0.0143309101867582
2023-12-11 14:17:35.256149,-0.0545425908604095,-0.0510340966172175,-0.0244290392449568,-0.0145676078165168
2023-12-11 14:17:35.257146,-0.0546830961547102,-0.051922912296569,-0.0248593785891014,-0.0148010370005223
2023-12-11 14:17:35.257146,-0.0548215494766105,-0.0527987475024644,-0.0252834331561391,-0.0150310571297629
2023-12-11 14:17:35.257146,-0.0549578674270063,-0.0536610746645252,-0.0257009475114553,-0.0152575296487136
2023-12-11 14:17:35.258149,-0.0550919678930617,-0.0545093743491136,-0.0261116701600141,-0.0154803181387975
2023-12-11 14:17:35.258149,-0.0552237700976701,-0.0553431355722195,-0.0265153536978499,-0.0156992884005587
2023-12-11 14:17:35.259146,-0.0553531946481118,-0.0561618561072584,-0.0269117549610943,-0.0159143085344993
2023-12-11 14:17:35.259146,-0.0554801635838774,-0.0569650427875939,-0.0273006351724486,-0.0161252490205308
2023-12-11 14:17:35.259146,-0.0556046004236274,-0.057752211803603,-0.0276817600850148,-0.016331982795992
2023-12-11 14:17:35.260149,-0.0557264302112627,-0.0585228889941044,-0.0280549001233966,-0.0165343853321868
2023-12-11 14:17:35.260149,-0.0558455795610746,-0.0592766101319762,-0.0284198305219876,-0.0167323347093957
2023-12-11 14:17:35.261143,-0.0559619767019501,-0.0600129212037883,-0.0287763314603612,-0.0169257116903156
2023-12-11 14:17:35.261143,-0.0560755515206039,-0.0607313786832835,-0.0291241881956827,-0.0171143997918842
2023-12-11 14:17:35.261143,-0.0561862356038122,-0.061431549798541,-0.0294631911920618,-0.0172982853554446
2023-12-11 14:17:35.262150,-0.0562939622796218,-0.0621130127926621,-0.0297931362467697,-0.017477257615209
2023-12-11 14:17:35.265149,-0.0563986666575116,-0.0627753571778207,-0.0301138246132429,-0.0176512087649806
2023-12-11 14:17:35.266147,-0.0565002856674793,-0.0634181839825257,-0.0304250631208007,-0.0178200340230911
2023-12-11 14:17:35.266147,-0.0565987580980331,-0.0640411059919469,-0.0307266642910041,-0.0179836316955178
2023-12-11 14:17:35.267150,-0.0566940246330631,-0.0646437479811583,-0.0310184464505858,-0.0181419032371402
2023-12-11 14:17:35.267150,-0.0567860278875707,-0.0652257469411599,-0.0313002338408833,-0.0182947533110997
2023-12-11 14:17:35.268145,-0.0568747124422357,-0.0657867522975406,-0.0315718567237093,-0.0184420898462272
2023-12-11 14:17:35.268145,-0.0569600248767985,-0.0663264261216509,-0.0318331514835959,-0.0185838240925032
2023-12-11 14:17:35.271148,-0.0570419138022385,-0.066844443334159,-0.0320839607263503,-0.0187198706745176
2023-12-11 14:17:35.271148,-0.057120329891729,-0.0673404919008659,-0.0323241333738628,-0.0188501476428965
2023-12-11 14:17:35.272146,-0.0571952259103499,-0.0678142730206634,-0.0325535247551114,-0.0189745765236654
2023-12-11 14:17:35.272146,-0.0572665567435402,-0.068265501305521,-0.0327719966933053,-0.0190930823655193
2023-12-11 14:17:35.273143,-0.0573342794242732,-0.0686939049523922,-0.0329794175891183,-0.0192055937849703
2023-12-11 14:17:35.273143,-0.0573983531589382,-0.0690992259069393,-0.0331756624999586,-0.0193120430093464
2023-12-11 14:17:35.273143,-0.0574587393519134,-0.0694812200189751,-0.0333606132152301,-0.0194123659176152
2023-12-11 14:17:35.274149,-0.0575154016288142,-0.0698396571895302,-0.0335341583275376,-0.019506502079008
2023-12-11 14:17:35.274149,-0.0575683058584036,-0.070174321509456,-0.0336961932997948,-0.0195943947894213
2023-12-11 14:17:35.275148,-0.0576174201731521,-0.0704850113894799,-0.0338466205281932,-0.0196759911055728
2023-12-11 14:17:35.275148,-0.0576627149884328,-0.0707715396816358,-0.0339853494009952,-0.0197512418768927
2023-12-11 14:17:35.275148,-0.0577041630203428,-0.0710337337919943,-0.0341122963531154,-0.0198201017751302
2023-12-11 14:17:35.279146,-0.0577417393021375,-0.0712714357846276,-0.0342273849164565,-0.0198825293216575
2023-12-11 14:17:35.279146,-0.0577754211992697,-0.0714845024767435,-0.0343305457659716,-0.0199384869124548
2023-12-11 14:17:35.280149,-0.0578051884230241,-0.0716728055249337,-0.0344217167614222,-0.0199879408407618
2023-12-11 14:17:35.280149,-0.0578310230427382,-0.071836231502483,-0.0345008429848098,-0.0200308613173813
2023-12-11 14:17:35.281150,-0.057852909496603,-0.0719746819676936,-0.0345678767734562,-0.0200672224886231
2023-12-11 14:17:35.281150,-0.0578708346010372,-0.0720880735231822,-0.0346227777487136,-0.0200970024518773
2023-12-11 14:17:35.282148,-0.0578847875586282,-0.0721763378661157,-0.0346655128402875,-0.0201201832688075
2023-12-11 14:17:35.285148,-0.0578947599646359,-0.0722394218293544,-0.0346960563061566,-0.0201367509761564
2023-12-11 14:17:35.286145,-0.0579007458120559,-0.0722772874134776,-0.0347143897480791,-0.0201466955941566
2023-12-11 14:17:35.286145,-0.0547470640810003,-0.0744051791777715,-0.0358180898759467,-0.0220408080513138
2023-12-11 14:17:35.287146,-0.0547396034193503,-0.0743962179857326,-0.0358138782955863,-0.0220407669808452
2023-12-11 14:17:35.287146,-0.0547172259284238,-0.0743693398075027,-0.0358012460914035,-0.0220406437941788
2023-12-11 14:17:35.288150,-0.0546799450875847,-0.0743245608334914,-0.0357802008725659,-0.0220404385655175
2023-12-11 14:17:35.288150,-0.0546277833534175,-0.0742619080368783,-0.0357507553159262,-0.0220401514184835
2023-12-11 14:17:35.289147,-0.0545607721462003,-0.0741814191573653,-0.0357129271583869,-0.0220397825260435
2023-12-11 14:17:35.289147,-0.0544789518309786,-0.0740831426784437,-0.0356667391862155,-0.0220393321104043
2023-12-11 14:17:35.290147,-0.054382371693251,-0.0739671377981896,-0.0356122192213194,-0.0220388004428796
2023-12-11 14:17:35.290147,-0.054271089909281,-0.0738334743936052,-0.0355494001044868,-0.022038187843726
2023-12-11 14:17:35.291147,-0.0541451735110542,-0.0736822329785275,-0.0354783196756046,-0.0220374946819503
2023-12-11 14:17:35.291147,-0.0540046983459005,-0.0735135046551296,-0.0353990207508655,-0.0220367213750872
2023-12-11 14:17:35.291147,-0.0538497490308068,-0.0733273910590444,-0.0353115510969765,-0.022035868388948
2023-12-11 14:17:35.292149,-0.0536804189014465,-0.0731240042981428,-0.0352159634023863,-0.0220349362373394
2023-12-11 14:17:35.292149,-0.0534968099559579,-0.0729034668850046,-0.035112315245548,-0.0220339254817549
2023-12-11 14:17:35.293149,-0.0532990327935041,-0.072665911663121,-0.0350006690602356,-0.0220328367310358
2023-12-11 14:17:35.296147,-0.0530872065476526,-0.0724114817268749,-0.0348810920979364,-0.0220316706410048
2023-12-11 14:17:35.297143,-0.052861458814613,-0.0721403303353461,-0.0347536563873412,-0.0220304279140709
2023-12-11 14:17:35.297143,-0.0526219255763785,-0.0718526208199939,-0.034618438690957,-0.0220291092988064
2023-12-11 14:17:35.298150,-0.0523687511188151,-0.0715485264862722,-0.0344755204588679,-0.0220277155894958
2023-12-11 14:17:35.298150,-0.0521020879447492,-0.0712282305092368,-0.0343249877796729,-0.0220262476256574
2023-12-11 14:17:35.299143,-0.0518220966821057,-0.0708919258232076,-0.0341669313286291,-0.0220247062915379
2023-12-11 14:17:35.299143,-0.0515289459871517,-0.0705398150055524,-0.0340014463130326,-0.0220230925155792
