Timestamp,TP9,AF7,AF8,TP10
2023-12-06 16:50:15.492652,0.707210115651243,0.2799478662039827,0.24958302082618544,0.26614490220268655
2023-12-06 16:50:15.492652,1.5161885819694756,0.6563388965039105,-0.07022620291573234,0.6256825548587899
2023-12-06 16:50:15.493655,2.0756992620105112,0.8040017811994932,-0.19418928397583782,0.5200066093719041
2023-12-06 16:50:15.494656,2.637658007529805,0.38273645445486126,-0.0320857868108933,1.006165035898329
2023-12-06 16:50:15.494656,2.6139514059041473,0.9269918429874967,-0.006310143013911105,1.0741625546763185
2023-12-06 16:50:15.495659,1.1544192743203798,2.0053710105093274,-0.21014578629334615,-0.0398820222878158
2023-12-06 16:50:15.496658,0.8350346844413291,1.852187511352524,-0.3584664735700224,-0.08592268258993166
2023-12-06 16:50:15.497656,2.367081438037967,1.3152674950119896,-0.14818346918902603,1.3068925896311738
2023-12-06 16:50:15.498657,2.7620056391812513,1.3046008825813984,0.41381085194819717,2.363022922016313
2023-12-06 16:50:15.502659,2.821679221959366,1.5327963080251383,0.6338894566456804,2.5982126835415356
2023-12-06 16:50:15.503656,2.510890109695682,1.6724568342046284,0.6732494003235726,1.6174036681737434
2023-12-06 16:50:15.503656,1.0546406494097942,1.842466868638255,1.4267790540610963,0.16414908648657342
2023-12-06 16:50:15.528934,2.064277059866185,2.096924899035998,2.1527387090778776,0.4305542883853424
2023-12-06 16:50:15.528934,3.912274573082896,1.9693773526785157,1.7874306413015122,1.205762223561841
2023-12-06 16:50:15.530054,2.9645087890533732,2.241607210875893,1.3286393985327927,0.42510158739547904
2023-12-06 16:50:15.531401,1.6820636894008292,3.014355097671042,1.3838023673524904,0.16721808402455376
2023-12-06 16:50:15.532550,2.1018414027563055,3.3384252602374405,1.1243043056332942,1.14875497460224
2023-12-06 16:50:15.533557,4.5305495402860165,3.928373612730815,1.5002437974294365,2.3514553220764434
2023-12-06 16:50:15.533557,5.8379610779151,3.512406608058279,2.861237819583645,4.116325129580123
2023-12-06 16:50:15.534573,2.968532933970094,1.5879972809332572,3.178587559121754,3.9365434225803604
2023-12-06 16:50:15.535578,0.350105558459809,2.37375690067274,3.071490586017741,2.1227189088136442
2023-12-06 16:50:15.536580,1.2914593245480261,5.48506593381982,3.4378651628255246,1.4047347293784167
2023-12-06 16:50:15.537605,4.407620048772882,6.142527811989463,2.8180019135535836,-0.062482537379831594
2023-12-06 16:50:15.538763,6.505897941725382,4.930732518284717,2.03939085925168,0.9192050995835962
2023-12-06 16:50:15.554726,5.490615588231834,5.075909721820973,2.0391086922186084,4.127507765689077
2023-12-06 16:50:15.554726,4.655156769984188,5.618715172437868,2.6916437500853014,1.1896641296003996
2023-12-06 16:50:15.555744,4.566573196203067,4.34181115615129,4.648200667305097,-2.3224668781208067
2023-12-06 16:50:15.556751,3.666752639899182,3.874863421870163,5.8733341098375025,0.011056118403154212
2023-12-06 16:50:15.557753,3.398898005029528,6.040044885444393,5.377412971393377,1.9244525845565932
2023-12-06 16:50:15.558764,2.530891969610499,7.03322487129783,5.7633099593049915,2.416574058786848
2023-12-06 16:50:15.559770,1.397188644440181,6.730283896826102,7.213827217723453,2.523682943839958
2023-12-06 16:50:15.560869,2.621039700351306,7.575652753637801,8.139439390349683,1.712463321121999
2023-12-06 16:50:15.561877,6.1667224243955925,6.930663164230465,7.763626336143161,2.558729580380015
2023-12-06 16:50:15.563021,8.147816529161103,4.392695209415637,6.964427339776988,4.089179188924422
2023-12-06 16:50:15.563021,4.592822909057188,4.075406296911653,6.641446339222094,4.747682237644573
2023-12-06 16:50:15.568035,2.228779355510321,5.842029671050147,5.365708631744711,4.7895011493493005
2023-12-06 16:50:15.621285,4.261236412052547,5.3414965707366475,4.793707060958535,3.577381093339352
2023-12-06 16:50:15.622297,3.4982329567719175,3.0325719967041964,5.821663712281738,3.087788676040022
2023-12-06 16:50:15.623287,2.408814262629324,3.1609219790766945,4.734779983931802,3.6586364151538033
2023-12-06 16:50:15.624287,2.1645956181527364,4.049431887630469,3.4244732883421674,0.9996432382869879
2023-12-06 16:50:15.625286,-1.2389686222805936,4.095615363257981,4.295049877864031,-2.674879471929126
2023-12-06 16:50:15.626285,-2.604337768876937,4.3257403783418695,4.77987218486279,-2.7166589417849325
2023-12-06 16:50:15.627286,-0.2672734578053737,1.545992895950406,5.588246114116349,-3.401753867546413
2023-12-06 16:50:15.628794,1.7014798237923892,-0.9005116282669863,7.12779489565861,-2.2704740452943892
2023-12-06 16:50:15.629799,0.8703647181170096,0.28672630470979815,7.908858911554332,3.306946206033204
2023-12-06 16:50:15.629799,-1.6358093380223588,-1.2738473000291317,8.841667461187779,2.020378219913057
2023-12-06 16:50:15.630799,-1.3093984944198105,-1.3017273627096346,10.059597298347699,-2.3551950754299353
2023-12-06 16:50:15.632896,0.49669093032220796,3.065643996964097,10.293479058516418,-1.575033234794144
2023-12-06 16:50:15.657049,4.161332063379456,2.264269173233783,9.138796329185546,-1.8016107474309315
2023-12-06 16:50:15.660061,5.778637466355065,0.5747602941818544,8.017186435058367,-0.5112609246827513
2023-12-06 16:50:15.661367,-3.509453003188381,0.16008583001073637,8.609660330983937,1.304225465722631
2023-12-06 16:50:15.662513,-9.356397256067837,-5.5062002046131475,10.94013524557893,1.1799986636442372
2023-12-06 16:50:15.663861,-4.591726069491623,-4.7422226498034,13.022978183015915,2.8883142781171602
2023-12-06 16:50:15.664872,-1.3906773401387489,1.8366868061071275,12.600679725348064,0.6484949728528171
2023-12-06 16:50:15.665958,3.862492903553598,-0.6656533256244266,11.34728858982361,1.9892104014504663
2023-12-06 16:50:15.665958,6.2404667872560475,-2.1228131066880036,10.981340639757182,8.235542908343318
2023-12-06 16:50:15.667968,-2.212366210492613,1.066988246042094,10.226165365196566,3.110405391159938
2023-12-06 16:50:15.668976,-5.708086363821805,-0.6063875321063031,9.3609540582209,-2.747200804974351
2023-12-06 16:50:15.670152,1.5956647016408971,-2.323716950104883,9.088691984197144,-0.9603518047728946
2023-12-06 16:50:15.672531,6.727982628468461,-4.414134903240861,7.837986993741158,0.46296346161972823
2023-12-06 16:50:15.704712,-0.6925937918892277,-4.387427043608769,4.79679674093495,0.4337818910638016
2023-12-06 16:50:15.709792,-9.897482569427222,2.62437789501535,3.6962112935043527,-6.241722670887901
2023-12-06 16:50:15.709792,-3.138681009726081,5.238027157805796,4.92518235619341,-12.553419479516515
2023-12-06 16:50:15.711169,7.472989990148908,3.7589947832125974,4.246095978953902,-6.154911402684125
2023-12-06 16:50:15.712195,7.8370748875910135,4.567878186142776,3.9881434504790323,4.143020269136094
2023-12-06 16:50:15.713208,3.097132143246678,4.709417179833384,4.777764754117014,5.193045718654207
2023-12-06 16:50:15.714477,-2.9793835917095297,4.4585707134896255,4.623690408144479,1.2516940938351238
2023-12-06 16:50:15.715505,-0.28810655644090144,0.0955335289838713,6.04232579775142,3.6721036360331323
2023-12-06 16:50:15.716954,11.598622721376795,-4.455836415323288,5.885520364861311,4.216759610576992
2023-12-06 16:50:15.718103,13.958470237191907,-0.7118842460285065,2.4403580561847047,2.336650026409159
2023-12-06 16:50:15.719113,5.791932779783271,3.4023658695897834,1.0593239898026274,8.161855741761299
2023-12-06 16:50:15.721162,-4.053174334761307,4.128471815569924,1.7746487538848315,2.8416376203085747
2023-12-06 16:50:15.771693,-9.634788570700378,5.196200142355769,0.8380576316481235,-12.515162492230079
2023-12-06 16:50:15.771693,1.8403893541615384,7.1000137770273595,-0.6665686248872965,-9.437105968276725
2023-12-06 16:50:15.772693,15.945364569741253,7.909502274686008,0.2946537610582107,1.4577796924399429
2023-12-06 16:50:15.774706,6.845518934395641,1.7058867748763717,-0.16607048600777757,2.8339608656431903
2023-12-06 16:50:15.775712,-7.217253480864776,-1.315323816621576,-2.4664237779947276,4.042825462923559
2023-12-06 16:50:15.775712,-6.49792018062742,7.072988657842512,-1.7547135045565823,3.936684908920168
2023-12-06 16:50:15.777794,-1.7526117842072484,6.308081946963448,-3.2340037865990325,1.1482521982464822
2023-12-06 16:50:15.778804,1.0366569030150259,-0.12712897649247165,-6.541744775681397,4.806253009255077
2023-12-06 16:50:15.779812,-0.022528621103810816,7.452489749651286,-5.415136558966532,5.237310060048135
2023-12-06 16:50:15.781007,-8.414197422092455,8.095426031400768,-4.685955205161468,-1.723837413746712
2023-12-06 16:50:15.782048,-20.00576283230024,-2.8635854823580016,-5.5521172802432,-4.511955335504843
2023-12-06 16:50:15.783335,-19.320063209853625,1.566583400587607,-4.488408580034741,-4.143543993834763
2023-12-06 16:50:15.803891,2.8527631177537365,13.63664173939072,-1.7575964672302118,4.142025519323482
2023-12-06 16:50:15.804902,14.441703242155548,18.473542194801755,-1.4792053535549232,14.638233058020027
2023-12-06 16:50:15.806900,-6.934016559410328,18.61065144611823,-8.077531151818427,5.464185551465774
2023-12-06 16:50:15.810905,-22.52998055288004,11.880079656317301,-13.775200723546131,-7.6320946079891785
2023-12-06 16:50:15.811903,-7.403868942046793,4.61325423710557,-14.787385648126,-5.208544616991849
2023-12-06 16:50:15.811903,11.002565361015588,0.002402744268859245,-16.5244722914233,2.423390030306646
2023-12-06 16:50:15.813900,6.085216159443697,-5.122674580237471,-16.16576900907969,5.488236938338766
2023-12-06 16:50:15.815908,-14.199876131536223,-3.793037803494358,-15.01118793232614,-2.8921795253147735
2023-12-06 16:50:15.816905,-18.74175121902017,0.9350799031203503,-14.818223363516408,-10.014088665153539
2023-12-06 16:50:15.817916,-1.9764432006584347,2.8856832214529264,-14.58530954131867,-4.250521162720718
2023-12-06 16:50:15.819933,9.189688960691676,3.9914513730364645,-17.339155839678547,2.2043474635509868
2023-12-06 16:50:15.820945,4.905821181939048,1.4576976218547895,-16.62715915400006,10.137182352716586
2023-12-06 16:50:15.842044,-8.499690623682428,-1.5735832219775954,-15.061082201493809,11.890159119295769
2023-12-06 16:50:15.844059,-22.53671616703858,-5.637239239432704,-20.396680173958977,4.87603270609828
2023-12-06 16:50:15.845151,-17.132193037689717,-18.270685983967358,-23.225678295959163,5.055666401680889
2023-12-06 16:50:15.846161,3.455170509560517,-22.924836001449002,-22.765048164084686,-0.7707165049995656
2023-12-06 16:50:15.847169,11.953889181763545,-6.286981723300579,-20.12247888948975,-4.867955972134632
2023-12-06 16:50:15.848263,5.9098831083582954,10.269349498726253,-16.422249566875802,2.948129012878458
2023-12-06 16:50:15.850281,-11.18044823287964,10.60768291050836,-24.97229786970013,-3.429578701456989
2023-12-06 16:50:15.851291,-21.068331356561483,3.6762017706186327,-36.158102008547594,-10.639005963763601
2023-12-06 16:50:15.853313,-0.09098709058492682,-0.7283498111677672,-36.560742679058905,-3.3546440823976025
2023-12-06 16:50:15.855398,8.98114491654367,-3.9652444756130256,-36.19585653023628,4.289974223102083
2023-12-06 16:50:15.856413,-15.869647745644585,-7.133672754679075,-38.45060755018704,1.7559809491302638
2023-12-06 16:50:15.857443,-28.445864384317677,-6.513796456393462,-42.42941939984448,-13.362100593371203
2023-12-06 16:50:15.904787,-19.955475723158848,-6.043878568456008,-45.3699296249796,-13.931545418220946
2023-12-06 16:50:15.905794,0.13835537278850593,-10.025819709330294,-44.24542704243253,-0.7473142896387162
2023-12-06 16:50:15.905794,15.806244600040415,-14.626706413065675,-48.40371525484644,1.9368815099500567
2023-12-06 16:50:15.909177,-0.1931224885849933,-16.63212397926759,-51.83290054282448,1.0578792656324716
2023-12-06 16:50:15.911501,-21.148307453007217,-13.698082425273263,-47.66636711539488,-11.117257093996896
2023-12-06 16:50:15.915682,-14.637720477077687,-5.7899739601876865,-53.908011113775075,-20.553781729281795
2023-12-06 16:50:15.916688,12.25782864723772,2.4731755507219115,-65.9190729636292,-0.5522240193340401
2023-12-06 16:50:15.916688,25.381673150441262,1.6001629350128008,-65.09673437143113,12.3712437712513
2023-12-06 16:50:15.919041,2.3733489327969015,-9.44675340063114,-59.56444213777823,0.02095372937726926
2023-12-06 16:50:15.921158,-18.42339882992674,-10.74838292207306,-51.66871743355289,-8.250347006949362
2023-12-06 16:50:15.922335,-16.68700040917217,-0.4703800259245861,-38.77422190728162,-11.154774464221447
2023-12-06 16:50:15.923339,-6.92956366149449,-1.5562392802260336,-32.792009191246855,-15.854233858392181
2023-12-06 16:50:15.939325,5.210968065517628,-10.444879942862453,-29.2128289365716,-3.8052072283615215
2023-12-06 16:50:15.940402,-0.5857348752979374,-15.071121395553526,-19.118841571882378,15.975376274605356
2023-12-06 16:50:15.941682,-13.364345975007902,-19.784673640508114,-13.387821226088953,9.851183000879676
2023-12-06 16:50:15.943789,-10.322840517649652,-19.131547131934248,-14.424264951304094,-4.414645850828039
2023-12-06 16:50:15.943789,-3.741190320485251,-14.254962629327418,-13.906021170070854,-3.601590278696554
2023-12-06 16:50:15.947013,4.948474559122377,-13.65166966671822,-11.209937231377893,-5.265631218922083
2023-12-06 16:50:15.948019,7.053013600697985,-10.411088111680309,-7.145491852183602,-7.565803867462512
2023-12-06 16:50:15.950473,-11.248900950677713,-6.829600939677984,-4.849976309246265,-1.4286431361879401
2023-12-06 16:50:15.950473,-26.760109930525644,-10.594798037028427,-9.000979583600849,2.6755983606399845
2023-12-06 16:50:15.953018,-8.799352506995545,-13.697725839026264,-8.540020023577853,-3.2654245647258975
2023-12-06 16:50:15.953018,14.636710318987474,-12.587207419556373,2.9357178568544757,-10.011145147859892
2023-12-06 16:50:15.956113,7.033649511972976,-12.187875155330435,12.263865939344951,-0.05243701138283382
2023-12-06 16:50:15.979179,-9.875689261761119,-15.790446220926839,15.558501459382498,7.263495332394248
2023-12-06 16:50:15.979179,-10.666783696375836,-14.645678809956873,13.486868230087131,-8.295771945260034
2023-12-06 16:50:15.980193,-6.691570548065788,-8.599341006820282,3.667456425346887,-14.760983079722285
2023-12-06 16:50:15.983214,-2.4350160430658097,-9.79053110521213,2.5240781488302564,-2.232333151466616
2023-12-06 16:50:15.983214,-0.7339378356445289,-14.003683866584591,8.542116597893038,5.34455032940884
2023-12-06 16:50:15.984224,-6.82868416133797,-11.026894939771292,7.0364144945410265,7.568320798479504
2023-12-06 16:50:15.987345,-12.533684809931263,-3.0078291960373087,9.642014598799634,3.4515789230330194
2023-12-06 16:50:15.992391,-6.589838184898586,-7.508249736348707,12.913172533774098,-2.6329533017325035
2023-12-06 16:50:15.992391,6.147485020379394,-22.732943094755225,11.50447120693325,11.27056597229227
2023-12-06 16:50:15.994531,8.556107002181468,-20.7115484986711,17.058826894401932,24.627099427553667
2023-12-06 16:50:15.996546,-0.4042532680226179,-10.168639899699182,18.37505582467899,14.442384550599176
2023-12-06 16:50:15.998561,-16.484012458679473,-5.326183395305487,14.459264105051965,4.401800102962305
2023-12-06 16:50:16.005846,-23.421937042254584,2.584235924639368,17.559004882377614,-4.52192999958005
2023-12-06 16:50:16.005846,0.05420941788954801,3.228142096462545,19.38826445982313,-10.967289675358773
2023-12-06 16:50:16.006864,14.971243131744085,-2.8263895480935477,17.999001817055298,-0.30500448908716066
2023-12-06 16:50:16.009094,-5.0538908532611995,-4.296353849803445,16.559137206941855,-0.6629427432350348
2023-12-06 16:50:16.011207,-16.896096289897816,-3.882836282076484,16.360673300998478,-12.513192375117109
2023-12-06 16:50:16.013542,-8.847033688521654,-4.975677825428165,21.295693846229277,-10.413027749278733
2023-12-06 16:50:16.013542,8.562690970004828,-10.83105333771678,22.08640975886224,-2.1096890082691164
2023-12-06 16:50:16.016673,23.88949370877749,-7.936694953394363,15.555347609521728,12.631004427264633
2023-12-06 16:50:16.017741,4.961815738905521,4.188040236464434,13.134859651302229,20.437598027709612
2023-12-06 16:50:16.019768,-17.902699550116065,4.898299701673908,16.38615810509211,10.166257818356852
2023-12-06 16:50:16.020770,-5.797924318144804,4.033449502383271,18.033349650487008,3.4436062511519756
2023-12-06 16:50:16.023784,8.165732646524065,3.8369203969972787,13.249075913086827,-3.6849198527552582
2023-12-06 16:50:16.072351,13.708073831130642,-3.941045153487934,8.668398914303475,-2.7675803232362446
2023-12-06 16:50:16.073355,9.078648019662507,-2.6570303148028613,14.35901716675126,9.767043202321375
2023-12-06 16:50:16.075388,-13.413565809071034,-2.44916711616404,22.435630712770873,0.2359137208739915
2023-12-06 16:50:16.076397,-7.909088720426749,-16.35285634209293,20.591907300168174,-2.672283840949845
2023-12-06 16:50:16.078523,19.655319042373396,-18.94830077473048,9.840921667872676,10.467113976527907
2023-12-06 16:50:16.079584,16.500939755977576,-5.427138326076695,-1.4789375512053688,-2.754241764370619
2023-12-06 16:50:16.082627,3.308237605753308,3.33046784432397,-4.28133708352239,-10.131748519631849
2023-12-06 16:50:16.084670,-4.142836103046324,4.230109289976523,1.5305212536367903,-5.885098889377596
2023-12-06 16:50:16.085769,-12.921504279768923,8.196722574524685,7.040399959593274,-18.932678541699815
2023-12-06 16:50:16.090406,5.388370461556103,13.783781610014524,6.973464787970263,-17.685732915544545
2023-12-06 16:50:16.091411,32.956671061819705,12.919172502157053,5.210392182786888,-9.71609850014247
2023-12-06 16:50:16.092883,19.811720997942878,11.07769215817373,4.853350181412944,-14.143235349410286
2023-12-06 16:50:16.141467,-16.12881226307626,10.30295431805086,4.62919663389213,-13.857626860763265
2023-12-06 16:50:16.142501,-26.507387385321238,8.603564165264906,9.851266542402222,-16.91408520054567
2023-12-06 16:50:16.142501,-9.5827435340016,7.105698547786413,14.696069004256954,-11.849509323354278
2023-12-06 16:50:16.145526,3.37467820481929,5.669872150854894,9.600961635344033,7.13703285905898
2023-12-06 16:50:16.147529,3.8397353211871814,10.021663514414332,12.344898420277413,6.449453153172872
2023-12-06 16:50:16.150162,-3.424420110554277,4.7740978692640645,24.344317848344335,-8.267121865488091
2023-12-06 16:50:16.152268,-11.366155357048942,-15.452426647315777,27.98015593736441,-10.306662844112813
2023-12-06 16:50:16.154373,-0.4423671881603122,-14.081172156431178,31.68071754807598,-2.7294480650277717
2023-12-06 16:50:16.156394,14.42167680410962,3.348897163014578,34.85156640825701,5.687878691463249
2023-12-06 16:50:16.157638,7.726555838174653,8.402829631610608,29.488454162788763,13.992746713891663
2023-12-06 16:50:16.161188,-9.008566651841203,7.353914164216297,27.861625307034696,11.5751420434814
2023-12-06 16:50:16.161188,-20.443169215611196,0.8546528788123049,29.70483166291043,-3.0174009473352377
2023-12-06 16:50:16.189022,-11.771656014162431,-0.6293653268666641,30.53902398942549,-7.814316032813868
2023-12-06 16:50:16.189022,3.797509101723475,5.778602157312484,32.83588830972988,-5.760021781045738
2023-12-06 16:50:16.192269,-2.5688468374271793,-0.6899354996746111,31.749482202462403,-5.528274009287456
2023-12-06 16:50:16.194291,-9.043254088617939,-1.9476986625388535,31.491771484280942,2.885201231830385
2023-12-06 16:50:16.195303,-4.377641458666563,9.281117583150234,32.5368679713282,6.061951285456021
2023-12-06 16:50:16.198429,1.4573534091149107,8.108143679213418,28.15174496833901,4.308039515953575
2023-12-06 16:50:16.200455,20.98525572689239,5.912588043371107,27.284356759129068,15.90990158893235
2023-12-06 16:50:16.201462,31.12434404220908,11.343378900043124,29.774803856262128,22.95828513798831
2023-12-06 16:50:16.203578,7.605062998970372,9.622223330426909,25.965895222720835,11.840671343293149
2023-12-06 16:50:16.205612,-14.811203874053382,6.733896153786596,23.529920736574887,3.2835885572325227
2023-12-06 16:50:16.207715,-8.29786256016904,11.993310038380692,28.24440454356739,5.076810718194719
2023-12-06 16:50:16.213612,7.925300053798334,11.793506857231144,32.58351211028443,1.7690258210437106
2023-12-06 16:50:16.223934,9.405007925457127,-0.9152190596357238,29.08362703847886,-0.2582764735331023
2023-12-06 16:50:16.223934,-1.1637299583219138,-5.300051800516675,19.618495932454618,3.6158254622393553
2023-12-06 16:50:16.225938,-12.174750284232065,-1.4433986700522987,15.401685493017252,-6.283177642937373
2023-12-06 16:50:16.229474,-4.712702436934443,-8.906582102292841,15.42741653052808,-14.279200705309837
2023-12-06 16:50:16.231479,21.475537743262446,-11.049544146544363,9.778838687426047,-4.90734687341155
2023-12-06 16:50:16.234559,22.54912739749763,-0.8191693404491159,5.159944321403147,3.064888971741625
2023-12-06 16:50:16.235592,1.1142833859439594,0.9403129725009152,7.392356405913132,5.180741952090185
2023-12-06 16:50:16.238022,-6.807392911886446,1.4212485471957894,8.933188921188831,-4.208204955282417
2023-12-06 16:50:16.240045,-9.919559314704749,4.942850011088888,6.395879985343362,-16.205278166237143
2023-12-06 16:50:16.242060,-2.16518378785847,0.0715073331591145,3.8303791265768594,-8.74665738292698
2023-12-06 16:50:16.243070,17.644645137946878,0.19746489094815317,7.188669607376466,2.03755639392809
2023-12-06 16:50:16.244111,15.84611848808524,7.009333470213373,10.612056509121205,3.551146693670337
2023-12-06 16:50:16.255458,-3.565765283282686,3.0685741277358902,3.6934629968306965,-0.8630677504722591
2023-12-06 16:50:16.256462,-15.602281111869619,-1.0878396499904317,-4.168168079603441,-10.495703640739555
2023-12-06 16:50:16.257466,-9.007400919787228,2.000669773183769,-2.666463823373751,-11.697694774186555
2023-12-06 16:50:16.259475,6.6845045198528075,-0.746730163074183,0.4119706754825363,-3.6249004272102794
2023-12-06 16:50:16.261476,3.270050579902299,-4.530260006555292,-0.7632988358284049,1.4244725449595605
2023-12-06 16:50:16.263703,-9.775977041532522,-4.034732910686313,0.8479242440672584,0.7638471680722935
2023-12-06 16:50:16.265711,-8.354053215300217,-5.583273262305665,5.817247852330837,-1.3046005189046745
2023-12-06 16:50:16.268022,-2.4140492637527062,-5.5951903303591095,4.420574529596847,1.694591929321927
2023-12-06 16:50:16.271037,2.838838867512416,-6.28591361978094,0.9552062408842645,4.167337866008941
2023-12-06 16:50:16.273057,7.0991174209080254,-10.532267819667899,2.5804285163192318,-0.3815312569593389
2023-12-06 16:50:16.274059,0.6194895504263139,-6.237065327769763,1.7943515518396929,-4.926881688123861
2023-12-06 16:50:16.276060,-9.698562554203448,0.8245430459174711,-1.17097136595086,-6.102578486617371
2023-12-06 16:50:16.321551,-9.843430776887308,-3.545715290659175,0.20474080273883627,-3.4286318232903805
2023-12-06 16:50:16.326969,-1.0680027875336116,-7.380795685928148,1.7952222612067732,3.1992845484390755
2023-12-06 16:50:16.326969,2.8425527784193036,-5.130973094862161,2.0237419866021473,5.006238301577086
2023-12-06 16:50:16.327970,-2.2338887796208997,-6.478804179413926,4.532274690087242,3.2653759218377507
2023-12-06 16:50:16.331309,-2.0545551892119724,-5.837726799778691,5.017132326426238,7.292031625926324
2023-12-06 16:50:16.333312,4.816106409080839,-0.6181313233814089,1.088266316827851,4.497157727948174
2023-12-06 16:50:16.336328,7.774662874702182,0.5044090854865463,-2.2718630564814917,-7.730096374806041
2023-12-06 16:50:16.338376,8.730682133444974,-0.6774198355254125,-4.533795141165138,-4.709646818421937
2023-12-06 16:50:16.341414,4.441271696199967,0.07126064758469378,-6.313330878498152,4.944266335752173
2023-12-06 16:50:16.341414,-7.65029860328726,0.23615953184276364,-9.521711390527738,-2.030763948530681
2023-12-06 16:50:16.344740,-8.624179009376675,0.12996538084301482,-16.566380119985503,-7.778554306054175
2023-12-06 16:50:16.347764,4.022617231050466,2.908423833720162,-21.700210396931762,-0.7483062664790809
2023-12-06 16:50:16.356395,6.676766830116226,3.7612267610908794,-23.7658818391369,2.525318267856321
2023-12-06 16:50:16.357401,-2.6389700360514734,-1.74936923213716,-25.82343049890906,-1.0141019330257979
2023-12-06 16:50:16.359431,-5.702499776635663,-4.235754715827284,-24.534048737518646,-3.698415397153652
2023-12-06 16:50:16.362547,-0.8556910036764688,-1.7254120095472614,-20.889335133692583,-4.1083007342132065
2023-12-06 16:50:16.365654,0.9752055324242738,-3.398826475999729,-18.353738477751264,-2.353384186943668
2023-12-06 16:50:16.367736,-0.7252682001242905,-5.016813342881022,-16.100371815530888,0.4961563522896557
2023-12-06 16:50:16.370791,-1.6415349023761558,-2.2328518286659143,-13.842853723575255,0.2293323349772852
2023-12-06 16:50:16.372899,-3.683104299164073,-1.769975115474103,-11.708757693744012,-1.8084144781211564
2023-12-06 16:50:16.374928,-4.082213393910562,-4.066511196032017,-10.279054671224207,-1.3462850278943137
2023-12-06 16:50:16.377152,0.2691002751656775,-5.263382642407392,-9.657941350752422,-1.9867272939317089
2023-12-06 16:50:16.380231,2.9649777003625095,-4.031120626702509,-8.942162526522909,-1.4805607641794747
2023-12-06 16:50:16.382314,1.0513437888633075,-0.672586638892045,-8.609146582972592,2.727417893655484
2023-12-06 16:50:16.424736,-2.375385808901659,0.1905084034608839,-8.03376872852807,1.8238751588155717
2023-12-06 16:50:16.425741,-2.8793247830126965,-2.096729946194836,-6.36127061914415,-1.0270888264843954
2023-12-06 16:50:16.426997,2.3022327386538004,-1.5508398742614673,-4.809888824472027,1.4109315859242388
2023-12-06 16:50:16.434629,6.765073606631999,-0.26715218195870283,-3.867681684986525,3.3575192256160062
2023-12-06 16:50:16.435760,4.283727695171344,-2.619304913457201,-3.5188740579434294,2.358560719488948
2023-12-06 16:50:16.436773,-1.3419273006367118,-2.3042681557500457,-3.7373254103696754,0.8077251757622826
2023-12-06 16:50:16.440930,-3.4759918241472287,0.7647292995912324,-3.6497772450517125,-0.2175767035814171
2023-12-06 16:50:16.443321,0.07747666968196104,-0.2224963099928658,-2.7414820943393354,0.4459313432576417
2023-12-06 16:50:16.444693,3.954384746883184,-0.2693217300396195,-1.325336238066999,2.1650054116291533
2023-12-06 16:50:16.448222,2.4020113740411033,2.4852229477157404,-0.6807773357540098,2.0022331858806477
2023-12-06 16:50:16.451254,-1.561287713925519,1.2447782296818029,-1.239539497861873,-0.33583768475789305
2023-12-06 16:50:16.453394,-2.656384774810686,-0.9569625965084532,-1.8980154740560975,-0.6832355144795634
2023-12-06 16:50:16.456753,-0.5977720886033268,-0.49316314625537666,-2.7659120717440726,0.30105844373220475
2023-12-06 16:50:16.457841,1.3292815477191302,-0.4576457533687241,-3.6450183285382076,0.10417303215344716
2023-12-06 16:50:16.460005,0.049302170740205806,-0.18598477884325487,-3.395756539837304,0.2811826203781472
2023-12-06 16:50:16.462056,-3.2841563253100166,0.8834135254526234,-3.029146208726929,0.12436475834979531
2023-12-06 16:50:16.465457,-29.171976213173906,3.3188946363280794,-24.107435628354338,-1.9178120319828358
2023-12-06 16:50:16.471013,-9.496099750393322,-1.9217931622984836,-23.104445512543858,-2.097071529062607
2023-12-06 16:50:16.474103,17.992356381850357,5.856199331522168,-20.363810191259653,-0.7032810165469905
2023-12-06 16:50:16.476481,20.435259673120942,6.773745702764196,-20.394159376077667,11.759036602664919
2023-12-06 16:50:16.480829,4.793079147753048,-6.508680450634555,-15.195893000733555,11.95630065987067
2023-12-06 16:50:16.483044,-2.6260338687401976,-1.6758537734133865,-5.798521050524676,-4.203803168026512
2023-12-06 16:50:16.487959,2.0433421469750193,17.810839727611775,-1.8449284601884088,-7.538106319210607
2023-12-06 16:50:16.490967,10.415730077566446,25.45326103740003,-0.7281758624864733,-0.9873069195435038
2023-12-06 16:50:16.496294,13.324679120157697,25.167891257910874,0.6718454866616748,10.020563222184501
2023-12-06 16:50:16.496294,3.379238086008194,18.98376372277061,-1.1525001452475412,13.173096242708077
2023-12-06 16:50:16.498306,-13.74840920091169,12.82658332755911,-3.918042841499203,2.650194946684159
2023-12-06 16:50:16.502601,-10.427083004639552,17.798102034420882,0.24202974431071508,2.318424164253124
2023-12-06 16:50:16.504626,13.137748818664233,21.984892502015587,5.734464461018531,6.458814991766252
2023-12-06 16:50:16.513162,17.801763787390488,15.299756762507638,-2.555401823910153,8.693673941176852
2023-12-06 16:50:16.513162,6.443376134622463,9.338520889718856,-12.399770941906334,13.951465892018447
2023-12-06 16:50:16.514169,0.15255337283838583,16.758613307321614,-8.714863828115817,0.3189112953165756
2023-12-06 16:50:16.518591,-2.3202378180642422,24.00632551047862,-7.7589776702787665,-20.937084329378436
2023-12-06 16:50:16.520680,3.3482943581567093,17.11862392013656,-10.253007002652726,-15.961938488699063
2023-12-06 16:50:16.524837,0.6480888626150005,9.854688109700849,-3.2370994604641683,-3.527448541021577
2023-12-06 16:50:16.526848,-15.49599419887938,10.49309936884021,1.953626622185121,-10.189855339870347
2023-12-06 16:50:16.555868,-19.109701242334992,15.294023181154126,0.5137834528783498,-17.235970255428565
2023-12-06 16:50:16.556896,-13.826375142782872,22.450020157684826,0.9849267398485091,-14.51306456658339
2023-12-06 16:50:16.559946,-3.069005604618781,26.964710838236925,1.82198548741542,-14.909287525444348
2023-12-06 16:50:16.562249,12.687986199224794,22.183375108469274,2.8528631313963593,-6.387621959190644
2023-12-06 16:50:16.565568,11.233882884954248,12.878238024165576,7.018653340434649,7.518194887649229
2023-12-06 16:50:16.568595,-1.710332325187233,16.592110964531514,10.715502762872823,3.0359017931061825
2023-12-06 16:50:16.571638,-5.065341118800635,28.00401392930203,12.72662940528951,-5.48662170129728
2023-12-06 16:50:16.573757,5.324378055355409,25.724967766334956,16.58160667646603,-4.391775874656063
2023-12-06 16:50:16.576211,16.322210005832055,14.397579932466487,19.595400797364213,6.662281152509352
2023-12-06 16:50:16.578253,9.052388641964944,11.751893170782715,15.925169386943738,18.76850412159113
2023-12-06 16:50:16.580352,-0.21204521749969935,18.14384125009599,10.321331206207711,6.725664314797874
2023-12-06 16:50:16.583857,5.735586172808722,14.200368258481737,12.848790593061013,-9.754801329578932
2023-12-06 16:50:16.589831,9.933098660157949,2.1058005123821624,19.52537584571278,-6.596093786182211
2023-12-06 16:50:16.589831,10.216484287987026,5.525445035529513,20.901573934690187,1.987511426127153
2023-12-06 16:50:16.590947,12.008100052916872,15.415286585029705,21.5475171726322,9.66555907012561
2023-12-06 16:50:16.592990,6.385228620515801,20.149085071416238,22.75279843803562,1.9470949890129376
2023-12-06 16:50:16.600026,1.5700296350881078,23.654291064955057,18.884757656829105,-12.150152493755721
2023-12-06 16:50:16.601037,6.7017543233435,15.397509567401363,14.931052785773675,-0.61684016526764
2023-12-06 16:50:16.605077,11.311075211603114,3.7242548234076436,14.667897056174644,14.013807964131663
2023-12-06 16:50:16.611766,13.212371937945962,2.5516668170489614,17.454037094920473,8.653360901511705
2023-12-06 16:50:16.611766,5.416880357398964,-0.6066634664680047,17.36034390861659,0.6598469619445242
2023-12-06 16:50:16.612944,-13.143812376359072,-4.958928019765552,10.942597364233304,-2.851675010239428
2023-12-06 16:50:16.615372,-6.458364639790675,-4.126401089345111,15.919545225704299,-0.25619457576928495
2023-12-06 16:50:16.620871,20.364187355472488,-8.607428523971906,27.094866031364745,9.374306149116741
2023-12-06 16:50:16.673686,20.27625514570779,-14.233008075929583,20.57378184708489,9.142336983334808
2023-12-06 16:50:16.674695,-0.14814537780990025,-6.73361817439764,9.502517113089088,-3.518629513233656
2023-12-06 16:50:16.676832,-10.39919686314862,0.641565285343045,6.66706577026045,-12.385861380630603
2023-12-06 16:50:16.678855,-1.4599172390360018,-6.637160914158174,9.25170403354162,-14.93829941201509
2023-12-06 16:50:16.683333,9.720528292023596,-9.913403822632514,14.06709709223934,-6.290210915682239
2023-12-06 16:50:16.687439,0.9210855614508858,-2.214400708413854,9.177112206322832,8.104291020849665
2023-12-06 16:50:16.689461,-7.343318559395217,3.98299184807,3.190129187153185,4.852923609989435
2023-12-06 16:50:16.692511,-4.66579465478221,6.743102472718827,2.8713300017700596,-2.897370967034922
2023-12-06 16:50:16.695609,-5.489108434558178,0.19365162814838974,-0.3040301059100019,1.4852964753150875
2023-12-06 16:50:16.697764,1.6479690267309925,-8.353656043723216,4.733944982756652,0.9917019312210703
2023-12-06 16:50:16.700937,10.044469203859549,-5.006492145399098,11.857448323931095,-2.041319082949164
2023-12-06 16:50:16.703001,1.103836098573936,-0.45836985298997657,7.54359408828393,3.846324575637199
2023-12-06 16:50:16.706271,-11.771924105444747,-1.8952367030826671,5.997090312233679,3.2924621736833415
2023-12-06 16:50:16.709399,-12.13912709102866,-8.24697855055825,7.859195310588363,-9.847072575061494
2023-12-06 16:50:16.711483,-2.5326083738298486,-12.765468878460787,6.875813790420205,-15.627717229938206
2023-12-06 16:50:16.714962,2.487593353840273,-4.226448900388945,7.555688299492638,-7.496724873937004
2023-12-06 16:50:16.717103,-1.051356591243416,5.000515376679048,5.392225208058049,0.7343107760112497
2023-12-06 16:50:16.720339,-7.297391957829656,1.2191643962547192,1.2800559781076826,1.119925673598029
2023-12-06 16:50:16.722348,-6.087317817945827,-5.584539286170167,4.786975295465253,-3.067568187921082
2023-12-06 16:50:16.725685,10.184627145176801,-4.956515970222173,12.479228356845828,2.140248791148639
2023-12-06 16:50:16.727948,17.52106871205922,-0.6044195110113805,14.047068520866139,13.96099222873562
2023-12-06 16:50:16.736032,1.523787996740071,0.5470862589346576,7.783559912281571,8.842864243146154
2023-12-06 16:50:16.736032,-12.619566619385527,0.4617940917365919,0.47772960569756207,-4.429616687164347
2023-12-06 16:50:16.736032,-10.907760951899336,0.43179455431318564,1.1355041428867814,-6.961385906318281
2023-12-06 16:50:16.746705,-1.8579982838874294,-3.212729717044249,6.274956877888757,-5.715404343708034
2023-12-06 16:50:16.746705,2.996328554626314,-6.514343957044042,5.355580773793455,-1.6284746235924756
2023-12-06 16:50:16.749034,-2.265118528998754,-3.84540799212606,1.6421043121656853,1.6934306041388278
2023-12-06 16:50:16.752066,-10.963775558891863,-1.712685901048784,-1.0599506762082003,-3.1658345218335677
2023-12-06 16:50:16.756253,-9.337294285429598,-7.656558894327814,-0.037498305088910895,-4.353439379331588
2023-12-06 16:50:16.758281,3.2091307955132056,-15.299449295056174,7.402744569147998,0.5659748600838037
2023-12-06 16:50:16.760353,9.58064838743814,-16.144356138437367,7.9459346602979215,2.9375471316647697
2023-12-06 16:50:16.764579,5.65796310921351,-10.717789647196778,1.7950281451300885,6.718312220669924
2023-12-06 16:50:16.767601,0.10197674002598209,-4.187167234327757,1.6746385693921408,10.324774591127895
2023-12-06 16:50:16.769622,-4.662762847935679,-4.622731426355647,2.018562514703146,5.311361355272878
2023-12-06 16:50:16.772705,-1.9998204830645474,-10.674699136592015,1.8636864846087384,-1.2678717327741829
2023-12-06 16:50:16.777225,6.263743274421995,-7.617856000950836,3.797440353695622,0.012906669222600552
2023-12-06 16:50:16.782696,6.2558485591158,3.2601463983822137,3.2003512111964234,3.051376570581689
2023-12-06 16:50:16.783705,-0.9478855134981011,5.589727773311187,2.567408906451236,1.6309893743240447
2023-12-06 16:50:16.784710,-5.193177085680156,0.5542791952502581,2.5831349207489254,-1.120733704958311
2023-12-06 16:50:16.788800,-2.0699791264945646,-1.9968075895235442,3.1765383892051893,-0.5209232010360272
2023-12-06 16:50:16.791985,3.2467348228258133,-2.546109163856549,4.156621825762339,4.508538896887192
2023-12-06 16:50:16.795064,2.3684508352702154,-5.3005275467170065,2.3197414805143923,7.876547481843607
2023-12-06 16:50:16.797493,-1.8947020509587893,-7.842860455165808,2.5084815439464045,4.752712799548458
2023-12-06 16:50:16.800668,-5.34615284209537,-4.50230367626896,3.5403611983907317,-0.31017572388041
2023-12-06 16:50:16.803720,-4.532369071795977,-4.2852634980939,2.024173694678249,-1.3543491842825675
2023-12-06 16:50:16.806784,2.1863275464278167,-11.707302979415141,4.219925070127671,1.866829707696217
2023-12-06 16:50:16.810029,3.262993150411461,-11.472550014213232,6.3413464228600835,3.2815417675287066
2023-12-06 16:50:16.817308,-2.3657190173329914,-5.3002691207242725,4.45735912672698,0.3103953273483549
2023-12-06 16:50:16.839471,-3.4792748341271715,-4.739865848003108,4.629957565865743,-1.1395553299020915
2023-12-06 16:50:16.839471,0.12063424406595223,-4.927305999668568,7.605456637811667,-0.1711253384608979
2023-12-06 16:50:16.839471,3.41795559835061,-2.910946910425872,9.078792552589222,-0.5225467081914077
2023-12-06 16:50:16.848727,1.8095940373921204,-1.3995462591633019,6.098011081501474,-0.7736453987445255
2023-12-06 16:50:16.849759,-1.6931689677158106,-0.49730846482434105,4.039592151369268,-0.04223909380423372
2023-12-06 16:50:16.852858,-1.9497861024817698,-0.10701786239075418,5.624950988720297,-0.4002412448831358
2023-12-06 16:50:16.855947,-1.754142195310644,-0.5594423561432952,4.850335104992148,-1.5793484381491347
2023-12-06 16:50:16.860325,0.7148976895227995,-1.3302413549828482,5.233512560345609,-1.1535762651010393
2023-12-06 16:50:16.862359,2.962261827362707,-0.9485481299267057,8.409324286230246,0.9722778046506598
2023-12-06 16:50:16.864465,-0.5673347633926932,-0.6201720253086256,8.362489747675319,1.9803895800608065
2023-12-06 16:50:16.867932,-2.6857363907670306,-0.36263059398184466,7.295632742626636,1.4154973067741035
2023-12-06 16:50:16.871047,0.025256652865001176,0.6229904285583838,7.714917145809739,1.3441749420510483
2023-12-06 16:50:16.888467,3.7825116433135477,-1.0087584035859725,8.917893999175526,2.2340040121085774
2023-12-06 16:50:16.889471,5.236341857819858,-3.0659677612498313,9.177628199614206,2.6793862378955393
2023-12-06 16:50:16.890472,1.9591501698783085,-0.9135527017702,6.407770972347509,2.180458744992557
2023-12-06 16:50:16.894489,-1.3639155900833542,1.2533719161934784,4.357598692039083,1.6500406814088735
2023-12-06 16:50:16.898593,-0.5157437100195064,1.0161492504963427,5.4827977819470375,0.5938401356136783
2023-12-06 16:50:16.900717,2.704458280116404,1.210088811497078,7.400431661302823,0.4280909422454849
2023-12-06 16:50:16.902729,4.53693514758604,0.29304037265661936,7.77876335629284,2.5631708119361125
2023-12-06 16:50:16.905753,2.3690767519255864,-1.6153186373243353,5.840140124083461,2.569280574198572
2023-12-06 16:50:16.912822,-0.2862742318327427,-0.22214356619942263,3.736190203833769,0.478658157643218
2023-12-06 16:50:16.915943,-0.2245628129282618,2.221417807815163,2.586237491724799,0.22488776709499725
2023-12-06 16:50:16.917962,0.7197473413596909,2.2320924208683404,1.9570629377360775,0.2425331831226616
2023-12-06 16:50:16.922028,1.542327155057393,2.0472411419452285,2.261078375361982,0.7182488684551875
2023-12-06 16:50:16.926158,1.1751819076945058,1.3210811634268675,2.169514542955253,1.5855300960698318
2023-12-06 16:50:16.933726,-1.2586883744456014,-0.36363440688020504,0.9988940250812746,-0.24181479265159
2023-12-06 16:50:16.934736,-2.316864114743468,-0.04550356204229428,0.8378589962399673,-1.9995020734958457
2023-12-06 16:50:16.936920,-0.34341859833136235,0.294428380396231,1.508049165989454,-1.1107117273569773
2023-12-06 16:50:16.940945,0.6479081951112976,-1.4763516460917645,0.7246014760095247,-0.06695024913641945
2023-12-06 16:50:16.943990,-0.39219884592732357,-2.3530383236326466,-1.4081482125677611,0.32917511216957257
2023-12-06 16:50:16.947992,-1.5406203753321803,-0.9361267792105492,-4.029856332700918,0.17491204116576212
2023-12-06 16:50:16.950992,-2.2866321779182184,1.7974821090206476,-5.389411310639164,-0.6205593849559545
2023-12-06 16:50:16.953993,-0.9429268339470734,2.476574316829392,-3.548305577272719,-0.7887818828700146
2023-12-06 16:50:16.958993,0.9040962445271414,-0.4807688143995026,-1.8775805762866271,-0.04656174723189979
2023-12-06 16:50:16.962157,-0.5168248138862169,-1.8913544761881316,-3.0539332354845605,0.09525039827935138
2023-12-06 16:50:16.965182,-3.2767853351518887,-0.8919071906552692,-4.310706231325324,-1.1356236478688786
2023-12-06 16:50:17.004621,-12.930880260851408,-3.6176062018683512,-31.71301021717616,-3.387895183114214
2023-12-06 16:50:17.005645,-7.8295522094252545,-5.974439108833715,-18.175886126949045,-1.6757654191000078
2023-12-06 16:50:17.007867,-5.256358450415136,-5.537933966518644,-12.223866925494542,-0.9926667499892337
2023-12-06 16:50:17.011986,-11.479800120314646,-16.34555937975527,-17.985761484424994,-0.4124120693383554
2023-12-06 16:50:17.014013,-14.219451485506413,-18.65739771559447,-21.328873210554384,-0.37494091851165445
2023-12-06 16:50:17.018365,-9.334655440725244,-2.26903356252681,-22.484222395288125,-2.2092708641760415
2023-12-06 16:50:17.022734,-3.7051520809872516,2.5898617631488996,-14.459115718619937,-2.01130972554809
2023-12-06 16:50:17.026819,-2.614118530011852,-9.487200588102004,-2.6354201662336307,0.48410081791586307
2023-12-06 16:50:17.031397,-8.017455919255653,-10.343085504091777,-12.369549856620013,-0.2543752088447736
2023-12-06 16:50:17.033530,-11.42054954018502,-2.8804927075366953,-24.677646911069203,-2.170923970686387
2023-12-06 16:50:17.035941,-10.688541466911792,-1.8641683946177177,-23.55514119568233,-2.132242928186625
2023-12-06 16:50:17.040306,-7.159644851933331,-2.875617160507166,-14.79670940522945,-1.1674490920755674
2023-12-06 16:50:17.048686,-1.1210272862730581,-12.136672367980026,3.185757065441431,1.2376497001151425
2023-12-06 16:50:17.048686,-3.7211546419395236,-20.5096367034298,1.3197296948434738,1.6083803787686188
2023-12-06 16:50:17.048686,-9.07999310487025,-6.3980927626619435,-20.34338834342706,-1.7926810973495741
2023-12-06 16:50:17.061571,-3.9570805128377353,9.100253898202324,-19.03040438705975,-3.0613576788797294
2023-12-06 16:50:17.061571,1.7633498688477227,4.634224250947749,-2.520958717934029,-1.0437694262990371
2023-12-06 16:50:17.062578,1.3243116997222588,-6.0108835552329465,3.5228361580189156,0.5280571367147925
2023-12-06 16:50:17.065680,-0.8491371340448641,-8.118719143916506,1.832180032976799,0.7958400189492959
2023-12-06 16:50:17.070270,-3.5780827459116256,-3.9907004937383483,-2.91202189341994,0.30580514607101417
2023-12-06 16:50:17.074351,-9.096296332221831,-12.165946426695946,-7.942634040822079,0.32978136261096663
2023-12-06 16:50:17.076367,-10.369364849187525,-22.888369401885885,-4.003334706910243,1.2944761959426503
2023-12-06 16:50:17.080628,1.0020718450211987,-8.036625510191191,8.950488879460186,1.4193249260250718
2023-12-06 16:50:17.085032,5.1915915065606075,6.5083590504561055,7.611932163891095,0.46259795927297914
2023-12-06 16:50:17.094267,-4.234136481222762,-0.4264990912668482,-6.316359177333151,-0.1790059763415894
2023-12-06 16:50:17.095299,-3.831470329688946,2.6480184208951867,-7.906657406895505,-0.6693799810400899
2023-12-06 16:50:17.098318,4.1286875207120035,13.747346444662108,-0.3201599499281001,-0.7726391997901217
2023-12-06 16:50:17.101349,8.746857537999498,5.637817586984193,13.43478602474289,0.9068917437489428
2023-12-06 16:50:17.105219,5.871305486885079,-1.8633400759655732,14.75594936325142,1.8140372284551782
2023-12-06 16:50:17.108431,-5.5369417631597715,4.006987195604019,-7.2710168869863745,0.30978893296824245
2023-12-06 16:50:17.113664,-7.613158700777094,-1.3427811398980325,-5.483655125875121,0.816040879228731
2023-12-06 16:50:17.114756,-1.4986768637980208,-6.98670471603697,10.474351124354198,2.1234893074753596
2023-12-06 16:50:17.118050,0.4273219468975031,2.718377977285397,3.0812708168600174,0.39313494225973544
2023-12-06 16:50:17.122165,3.38796579206667,4.668713064625265,1.4241751730865098,-0.45053429645949017
2023-12-06 16:50:17.125294,3.6183152290259395,5.85726564365868,0.6580598296321154,-0.28693349608059127
2023-12-06 16:50:17.129362,-1.066398962284092,17.92436273343852,-14.563096186749863,-1.5204280972465893
2023-12-06 16:50:17.138457,-2.570310283705165,16.85873469398554,-16.74780858472662,-1.5090413852472815
2023-12-06 16:50:17.138457,2.4574639730045624,8.017520825305757,-11.050111714807716,-1.9169597565623455
2023-12-06 16:50:17.138457,5.1996292218074185,11.139188565945517,-18.604172002254835,-3.7809844539729776
2023-12-06 16:50:17.141592,-2.4828869138977128,15.792548476836942,-31.678633091108157,-3.8303368736193315
2023-12-06 16:50:17.151737,-6.394098124687353,14.110806213765725,-33.88891353604754,-3.3489126379915914
2023-12-06 16:50:17.159025,-3.3673789847903115,13.248204654214618,-28.633399448357324,-3.029462521355238
2023-12-06 16:50:17.159025,-0.8780354347686615,12.193470352522388,-24.65329180647707,-2.4278550569619504
2023-12-06 16:50:17.160031,3.7527561831351925,4.586948141668,-19.667939131119898,-3.2061550265387955
2023-12-06 16:50:17.165558,0.5514817390526981,1.519965261746084,-25.008235072121238,-3.80216609941704
2023-12-06 16:50:17.168829,-5.802357300285495,13.305577867949715,-40.856686479971174,-4.030814891509824
2023-12-06 16:50:17.174150,0.9524924278092751,21.413008782337656,-42.36062478302449,-5.38331253898242
2023-12-06 16:50:17.176305,13.293665489936428,15.598101480457146,-26.491456816289784,-5.867484285317883
2023-12-06 16:50:17.186341,16.732633469332143,13.649955733385042,-20.633276999905643,-5.292725028524188
2023-12-06 16:50:17.187487,3.0205674087579033,16.721202340247387,-38.217161425189275,-4.5940891345657455
2023-12-06 16:50:17.187487,-8.665449934691743,17.624608908548176,-50.86198070218659,-3.542172989714259
2023-12-06 16:50:17.189503,1.961663726037476,25.107216741955103,-41.158118460360164,-3.2550589047887684
2023-12-06 16:50:17.195741,16.10099334087459,28.67354420158277,-25.14329092040102,-3.683033208117325
2023-12-06 16:50:17.200955,21.128595472268653,16.439292002829852,-11.279330382409547,-3.9692876823275207
2023-12-06 16:50:17.205115,18.561780841446403,5.640874580084902,-7.819057851857412,-3.7966512913568633
2023-12-06 16:50:17.210325,7.6461496300457865,7.012240312834391,-18.40147328837944,-2.4855316276995305
2023-12-06 16:50:17.212630,2.241603633334611,11.717024944629731,-25.706771248008245,-1.8455006886302379
2023-12-06 16:50:17.215874,7.313758029397747,6.147626391269779,-16.575802377199224,-3.105087952574686
2023-12-06 16:50:17.220189,8.880134924524897,-6.140466141062774,-1.7822840734381937,-2.971930634261109
2023-12-06 16:50:17.226630,5.0981746692489756,-3.325008550231353,-1.3250224141165747,-0.6325489685451582
2023-12-06 16:50:17.228715,5.7959427941742545,16.334463598597186,-9.404712171254982,1.6673592511756439
2023-12-06 16:50:17.229716,8.016260719382537,28.886970361165694,-12.658859126233628,2.8650028596833486
2023-12-06 16:50:17.234308,6.764277488424286,19.698896743534082,-14.018139678941111,1.1081487761103799
2023-12-06 16:50:17.237509,8.838877570115997,3.4737163493144485,-11.42353092247556,-2.209438327359474
2023-12-06 16:50:17.242631,8.392823489832264,-4.511512021480702,-6.427720754919759,-2.7741062098980196
2023-12-06 16:50:17.245658,-0.9460249475369267,-5.748752944935011,-4.93863676596585,-0.7535326264961928
2023-12-06 16:50:17.248673,-5.806960616659602,0.4224446388982658,-7.417926633662631,0.9930414932507047
2023-12-06 16:50:17.258096,-0.22622390468524153,9.259301631919877,-10.468686998819868,1.021055564676992
2023-12-06 16:50:17.259101,12.536661883631595,15.153730538572033,-3.5634333262824005,0.4069512084618244
2023-12-06 16:50:17.260108,21.111339422325162,17.239548312855078,4.311092186418988,0.4275067944896782
2023-12-06 16:50:17.265233,11.522369061353713,12.172417168912126,-1.8341384371978713,1.034234697158201
2023-12-06 16:50:17.270481,-0.6911937281363162,7.0117243449855,-9.838186549695019,1.6339292983093263
2023-12-06 16:50:17.281491,2.4163569582807214,2.978114237883735,-7.317475560604243,0.14828264245576553
2023-12-06 16:50:17.281491,11.779050519939542,-1.3506533183206373,1.231698856008598,-2.332362617183678
2023-12-06 16:50:17.284022,15.495140157855268,4.181342920677888,3.568320517999326,-1.65299354814303
2023-12-06 16:50:17.288118,8.815403997013282,13.571723967445518,-1.5191672466121136,2.2331812894484675
2023-12-06 16:50:17.292418,-1.2790025416439017,15.601929990634497,-6.731997799481405,5.007523338384784
2023-12-06 16:50:17.296474,-1.9728555171048219,9.453411528757638,-10.199831380075763,2.63176295727249
2023-12-06 16:50:17.302130,2.6078613071323624,-2.2278497810801534,-7.66844004589786,-2.2072783433580607
2023-12-06 16:50:17.304163,0.7585683076325198,-8.020822774659718,-10.472487499111002,-3.8905459432845735
2023-12-06 16:50:17.306402,-8.758085162794401,-3.2477038855018505,-22.75559130174786,-0.6215426352008957
2023-12-06 16:50:17.311543,-16.43706053831124,6.341521471833417,-18.517377693608235,5.8453017605698925
2023-12-06 16:50:17.316596,-7.6284957934139115,14.685713265121523,-1.7139175379066636,7.185893630357978
2023-12-06 16:50:17.321747,9.40831603068209,14.807045527211853,5.721935075289976,2.2781835724081234
2023-12-06 16:50:17.331070,9.871334807591579,8.636178403358548,6.892909557883718,1.149005539377352
2023-12-06 16:50:17.331070,4.197527331988325,3.5254201774663647,3.817207210418884,0.654061989630121
2023-12-06 16:50:17.331070,5.2993023583574805,4.726388722613904,0.024653182328881595,-0.9216558227845771
2023-12-06 16:50:17.333362,-2.207288222041128,8.280015176582443,5.612570821418196,3.5066424208438463
2023-12-06 16:50:17.339598,-4.838830507716306,1.3562329937787594,15.838759647884759,3.018627542511332
2023-12-06 16:50:17.344028,5.207270202890688,-8.767958081115232,22.34052937627133,-3.378720342346959
2023-12-06 16:50:17.346455,-0.45970297183807124,-10.7511503449785,23.85231283820505,-1.688079337519848
2023-12-06 16:50:17.356611,-12.181705829123752,-9.564709383711746,21.38003582079303,1.6099866081652576
2023-12-06 16:50:17.360844,-10.081252635976302,-7.770456105912869,24.431449507858133,1.599695035026085
2023-12-06 16:50:17.368066,-6.3188237639258205,-16.447077876869756,34.955791563688535,-1.0816944574678364
2023-12-06 16:50:17.369075,-9.490226446506234,-34.42941136673939,38.18766311235234,-7.0459099301629164
2023-12-06 16:50:17.370102,-25.48359499200711,-42.561124888153465,31.071127330083378,-6.412502337510154
2023-12-06 16:50:17.381743,-42.98085228795258,-42.74508736254992,23.29214979595732,-1.9912098199777342
2023-12-06 16:50:17.382755,-39.919905752003345,-36.950711918082966,25.44757611401401,-0.6346110196335161
2023-12-06 16:50:17.384773,-23.824750671169795,-30.419275696424975,39.241805864979284,-1.0903686492279066
2023-12-06 16:50:17.388841,-14.67265694874067,-31.899667237974274,46.53596116249518,-3.4560056656899634
2023-12-06 16:50:17.394032,-17.83376211224332,-27.602409584214453,40.743089803869665,-1.034380058524938
2023-12-06 16:50:17.400185,-18.590471735506163,-23.257389143530332,36.62549397303326,0.72154523124657
2023-12-06 16:50:17.403571,-12.964133974782717,-27.569223448868645,37.11121027744465,-3.4119307676251065
2023-12-06 16:50:17.407609,-13.558628377162986,-23.021314670148662,33.996668519351374,-1.7766656684121125
2023-12-06 16:50:17.411766,-15.096452839988533,-15.837819232470167,29.485741110918323,1.7218659411999175
2023-12-06 16:50:17.414780,-17.363921971125208,-17.892938712089997,30.395530847668137,2.0878732913222438
2023-12-06 16:50:17.419057,-25.97512688623709,-22.890813991635817,30.06092347185703,2.563074294794845
2023-12-06 16:50:17.423371,-28.97171486979766,-28.686542553418068,23.59687297129069,-0.5924399472884666
2023-12-06 16:50:17.432177,-15.753168818117903,-22.18275610546562,21.738880075545598,-2.3801783254940756
2023-12-06 16:50:17.433189,3.0725640765363273,-7.784592809724913,26.379525648607373,-1.0542645457377369
2023-12-06 16:50:17.434200,-0.3356138675602454,-12.967777078725723,24.744645644644788,-2.5944063441914924
2023-12-06 16:50:17.439234,-16.963034697258145,-19.84646815067302,14.816785341441674,-1.5684526127071037
2023-12-06 16:50:17.444566,-15.95283823224307,-11.96136190189954,10.598151373490342,1.3227849993542957
2023-12-06 16:50:17.451927,-5.785104004860578,-8.995530919897432,15.792249094309774,-0.12080760944948489
2023-12-06 16:50:17.453147,2.9318132427724706,-3.11747572530627,19.428380025373443,0.4672109279322839
2023-12-06 16:50:17.455856,3.687230957109915,6.9825981544136635,17.86470903589424,5.370230476572444
2023-12-06 16:50:17.460136,-9.25301499783391,6.933568207264149,12.995108807303646,9.318279327785852
2023-12-06 16:50:17.467919,-13.240271820652199,7.688345181321499,9.4328717554064,10.515352492476431
2023-12-06 16:50:17.469286,2.9726086112880936,11.852686014173726,13.185668047275147,7.2358943197511065
2023-12-06 16:50:17.479656,20.388255418056474,12.7962744973583,17.432171050983502,2.0319624928668496
2023-12-06 16:50:17.479656,13.0627410711952,7.61698138100037,14.035612858918588,1.6810850103993453
2023-12-06 16:50:17.480806,-7.206798766182565,1.577088746319264,6.944021027086567,4.919442775013659
2023-12-06 16:50:17.487848,-5.749018930850933,5.10654616957486,1.6298404859044224,5.248784792059283
2023-12-06 16:50:17.494994,-0.7095509229521723,5.944056602973356,-0.7361865862145873,3.3775769591933136
2023-12-06 16:50:17.501464,0.14960808757070795,1.1966947963888104,-0.8185920149610771,0.6191662552974334
2023-12-06 16:50:17.506486,10.494292770614134,-2.2506010681848525,1.1508579888832282,-4.620904410955462
2023-12-06 16:50:17.509933,1.9626427388224377,-5.663777450862728,3.5601286807315686,-2.891451055472589
2023-12-06 16:50:17.515022,-15.189157251117177,2.9069306654627027,4.300152868415567,8.065466962248305
2023-12-06 16:50:17.521576,-9.273795240401473,9.228640221613405,4.476721492737853,9.745704674431435
2023-12-06 16:50:17.524577,9.014722714464051,4.141536621456858,0.9149342171568976,-1.1992022287970465
2023-12-06 16:50:17.527620,16.648961357880157,4.97043276634293,1.6301387833078957,-3.852980979325428
2023-12-06 16:50:17.531196,6.87607979050882,-0.5350885386531378,3.301360801387078,-2.778006910895327
2023-12-06 16:50:17.545645,-5.284320867909245,-10.195877954449772,-2.575618512444193,-3.7957151105244877
2023-12-06 16:50:17.545645,-7.31043339842467,-0.0987465222879459,-5.417403029355061,2.6284324139782425
2023-12-06 16:50:17.547907,-2.6429307704861364,7.02448737640411,-1.4116698267698358,5.143455377411999
2023-12-06 16:50:17.553108,-1.5576204475480753,-1.7582003356241385,-0.16208811548444843,-0.251320397644606
2023-12-06 16:50:17.560713,-10.764517731638003,-3.1172185273457504,1.7110468634465454,3.037730866001086
2023-12-06 16:50:17.560713,-4.661580429779587,8.230162065663203,1.095381951843356,6.927259383155154
2023-12-06 16:50:17.563089,12.850800495608368,17.18469465677888,-3.9150369703543113,4.1997884208240155
2023-12-06 16:50:17.568531,14.526920572916609,15.045541743317514,-0.880341640766502,2.498811446547771
2023-12-06 16:50:17.572550,13.616083281777888,11.48002672932659,3.0189615479123186,1.1471219214786021
2023-12-06 16:50:17.576575,9.215481204224265,9.920499750179122,-1.2541688453714157,1.775060908916442
2023-12-06 16:50:17.582063,0.5894862200406115,4.169074561250403,-4.349017058259974,1.9280049305505058
2023-12-06 16:50:17.586381,2.762028782046404,4.954416833104886,-2.417997638311541,1.5802594377065984
2023-12-06 16:50:17.597013,9.222847178579975,11.804286654919007,0.6556995394428917,2.8985726832000194
2023-12-06 16:50:17.603379,11.129172902114298,8.36313802397165,-2.0037611780005684,-0.09758755067694183
2023-12-06 16:50:17.603379,2.6114677117693175,5.069398036164198,-7.8354184822017725,1.3734933967802607
2023-12-06 16:50:17.604388,-0.8267865688843293,9.962462173922868,-9.084197582565423,5.592239247123591
2023-12-06 16:50:17.607434,11.114114461902147,10.923232419479227,-10.68396419648845,0.7645089732861218
2023-12-06 16:50:17.613483,17.314938570274993,10.87598078399242,-10.070818797399241,-1.9899296502947235
2023-12-06 16:50:17.618620,11.423857974827305,5.083868159140303,-4.151706681184779,-2.328870015926275
2023-12-06 16:50:17.622045,-6.617946685162128,-9.483782107555989,-3.9951261817903383,-2.402433572733685
2023-12-06 16:50:17.628164,-17.359839653865397,-10.361931086153438,-10.462261030191744,1.7377780153061537
2023-12-06 16:50:17.632911,-1.2585376171520304,0.898363260746101,-14.504423944031961,0.6510392145979593
2023-12-06 16:50:17.638475,7.719260935612587,8.422642844395309,-8.762187319656789,0.9820528730485834
2023-12-06 16:50:17.643691,2.38904293041442,3.230505767860477,-1.0650966451873465,0.7819083395297463
2023-12-06 16:50:17.652259,7.264049601552194,-12.791311344804482,-6.343949295586412,-10.465028271603138
2023-12-06 16:50:17.653279,5.681955767996444,-9.71230813613076,-11.389414937016626,-8.104972139193377
2023-12-06 16:50:17.654616,-7.082147830187196,3.9178555606219385,-7.6317497090794735,5.462505429207592
2023-12-06 16:50:17.657898,-0.6470810938840318,0.40094373331452254,-10.17873126449036,0.5424159988123394
2023-12-06 16:50:17.663001,17.703988418093783,1.857765663127731,-14.608317782902649,-7.292788219563678
2023-12-06 16:50:17.670232,13.321597015110749,8.191198065603254,-14.285939442590704,-1.6646688671427705
2023-12-06 16:50:17.674511,-3.103981806640253,4.269679086785815,-13.76739300844474,4.154913925513352
2023-12-06 16:50:17.682140,-7.375014260094024,5.562011023440519,-6.976307307757073,6.79488661157115
2023-12-06 16:50:17.686223,0.053741168802674724,4.906782800571997,-0.5555334907863898,2.621790313839866
2023-12-06 16:50:17.688244,10.751138616415371,-6.924582230972005,-3.928618165645821,-8.887714373553575
2023-12-06 16:50:17.693621,3.7926762963083185,-13.671433536966576,-3.7272365391081332,-8.971054130429652
2023-12-06 16:50:17.696641,-9.348083758253141,-12.568486747123469,-1.69813467351219,-1.8200896963669932
2023-12-06 16:50:17.709939,-5.710472135773964,-8.639402548029626,-5.885404047436459,-1.363467960924045
2023-12-06 16:50:17.711032,-0.9524554164392987,-2.225055592164071,-2.5900181292231057,-0.5728631696802979
2023-12-06 16:50:17.712305,9.191341466357706,1.4513134019057083,3.2644398875835887,-4.148430652238101
2023-12-06 16:50:17.726547,15.653524198924993,2.683010653178455,3.634567751985013,-6.900278159996646
2023-12-06 16:50:17.726547,2.285549577635704,7.510052306883887,10.606168089128696,1.9012287952022535
2023-12-06 16:50:17.727558,-1.6311887361597446,9.366580711300335,8.304234456496395,4.970065834058132
2023-12-06 16:50:17.732122,-1.197257445155647,2.166015694590839,-9.738048669231341,2.638908281449257
2023-12-06 16:50:17.741490,2.4848777438346064,-0.6508528813975604,-8.266692098294302,-0.8619265718913856
2023-12-06 16:50:17.744509,20.798358686184184,4.782113005224909,6.399252439806534,-9.585996414437394
2023-12-06 16:50:17.749139,16.435002145213502,3.934724174300668,-1.7304367323931575,-6.855710767477708
2023-12-06 16:50:17.752363,0.5440575043164834,-2.0772344050869616,-18.86013984360692,0.9204239313903133
2023-12-06 16:50:17.757577,2.252654157689601,-2.703203703780114,-18.683461831943355,-0.30854114219532114
2023-12-06 16:50:17.760769,6.064853199465258,-0.35982851268190147,-11.197068811765568,-2.2826424609879243
2023-12-06 16:50:17.766491,7.152017587413182,-1.964707821098634,-8.805135501252696,-3.970733005765275
2023-12-06 16:50:17.772586,-2.0846472944802237,-5.232493918631014,-5.211941635439399,-0.8437913844685649
2023-12-06 16:50:17.777712,-8.949763339780532,-0.7646621990516623,0.0650126680195832,4.317008577953473
2023-12-06 16:50:17.780734,0.8775897993962984,7.006752965181378,2.7271192471676553,1.7862664332979419
2023-12-06 16:50:17.784791,1.751007749022379,3.9984936374810833,6.9119735100351,-1.0627405032184263
2023-12-06 16:50:17.792417,-4.568458525207022,-7.289886435759503,6.590255527592911,-2.7208703077008844
2023-12-06 16:50:17.796824,-3.94321700410992,-12.885444849476459,-1.4355418093363952,-4.03493217304466
2023-12-06 16:50:17.798831,0.30083490205212493,-6.156937503664428,-1.987963756306599,-3.2078370091792827
2023-12-06 16:50:17.804276,3.961668892352987,2.240332970186603,0.8401429315342022,-2.1898561337132634
2023-12-06 16:50:17.809667,1.5355477250748313,3.4796463664576227,-0.6975991757426934,0.14530419829351132
2023-12-06 16:50:17.814934,3.279700490640062,5.727243469079377,4.402476189953033,-1.1233289014406176
2023-12-06 16:50:17.826092,3.233319534583137,6.247560279547837,6.942381395730514,-1.42140539408328
2023-12-06 16:50:17.827142,-6.349661147433217,0.7421611281019703,1.5559664121051502,3.5244258292537762
2023-12-06 16:50:17.828510,-8.754913603941144,-5.380105378833589,1.4405056008859376,2.1778691561727226
2023-12-06 16:50:17.833110,-12.702113944066765,-15.642551767755608,-1.3349235248102005,1.021664569384571
2023-12-06 16:50:17.840160,-13.454204471572664,-17.487898485775897,-6.057052285811143,2.4899404047837757
2023-12-06 16:50:17.853170,-0.47350260162703156,-3.4678577612757593,-1.9113826896445647,-0.9416673847207772
2023-12-06 16:50:17.853170,-4.792960557990483,1.8147676236842152,-2.1585881702050793,4.313766906694538
2023-12-06 16:50:17.853170,-17.57185476864994,-1.9321781139251122,-5.1621504455783205,12.395869264258476
2023-12-06 16:50:17.856624,-15.991319125255458,-2.463045142546737,1.0868605986657573,9.163271221095766
2023-12-06 16:50:17.860649,-12.934078847829944,-7.442025384948497,1.3421717193322609,5.083787334641255
2023-12-06 16:50:17.869302,1.0294354099034593,-9.418932079646863,-9.121581210827427,-1.2715195780192006
2023-12-06 16:50:17.879234,8.808184345975857,-3.113496504073625,-13.39313745789283,-2.322860740895544
2023-12-06 16:50:17.889140,-12.346132707927545,-2.1190007589340314,-8.773978589697728,11.16625063390583
2023-12-06 16:50:17.889140,-17.40945248555771,-4.7021721245843775,-3.2282535194245296,11.642284888546687
2023-12-06 16:50:17.891160,-1.044902899641998,-5.647358646133626,-4.2902390887714175,0.24131377802560053
2023-12-06 16:50:17.895377,4.375105585266213,-7.658891891862277,-10.999628333715188,-1.4214919829500132
2023-12-06 16:50:17.900639,3.390029486226316,-4.150200849535035,-9.725165546882348,0.2577140149979578
2023-12-06 16:50:17.907793,-5.509263403342187,1.0693321624313359,-4.04720357466642,6.326575099587565
2023-12-06 16:50:17.913922,-9.65680287121929,-1.9833503844258986,-5.520397157015687,8.932506545698985
2023-12-06 16:50:17.918905,-0.6426490445204938,-2.8496592174708937,-3.6704931242468386,1.1791548892673875
2023-12-06 16:50:17.923235,-0.6289388846451531,-0.7573503092273816,0.7909651474999763,-0.006229236453169315
2023-12-06 16:50:17.927553,-2.564086433071126,-5.9214272850625065,-4.661799614532527,2.202650759897788
2023-12-06 16:50:17.933536,-3.612677021398303,-8.387315880785073,-12.186966006917435,5.847200093808173
2023-12-06 16:50:17.939684,-6.0859809995103875,-4.246863792266832,-16.322285648992167,11.510575679646402
2023-12-06 16:50:17.950316,3.978636337148065,-2.10524240583003,-17.88299934859845,5.501769501809317
2023-12-06 16:50:17.950316,9.19116708291196,-0.6324116964494364,-12.691572153921143,-0.5820787885250854
2023-12-06 16:50:17.950316,1.9682299022047025,0.44291245868441337,-6.268360481384023,2.1029111280474635
2023-12-06 16:50:17.954342,-3.726149106363266,-0.652081359059414,-4.709731844877227,5.4130556860542205
2023-12-06 16:50:17.957688,-8.497933800813074,-2.1160919562548357,-6.459200259303768,9.825050993408942
2023-12-06 16:50:17.964873,-7.018711761499581,-1.863201564221492,-5.515910163373008,8.262215145934155
2023-12-06 16:50:17.974357,-0.8509636661960757,0.5320399862130901,0.5713108958719675,0.5740295797359244
2023-12-06 16:50:17.985108,-1.5962698859714206,-0.23660347328617828,0.904158803834806,0.7634544562429871
2023-12-06 16:50:17.985108,-8.65042120548193,-2.45197683437967,-3.2561845835502607,8.347911313477013
2023-12-06 16:50:17.987213,-7.175284028455617,0.9775848591083702,0.4493872826901504,6.048159536737652
2023-12-06 16:50:17.990229,8.395398190964375,5.617807917806831,7.017403316885401,-9.543730677694944
2023-12-06 16:50:17.996391,11.27292563304595,4.862167279124404,7.415271358161494,-12.59923987578127
2023-12-06 16:50:18.013620,-2.184548652797116,-1.0762032115001092,0.9099505584294915,0.959477707305174
2023-12-06 16:50:18.013620,-4.8487970670165605,-5.405086240428095,-5.239999090281572,5.804142601342133
2023-12-06 16:50:18.013620,-1.2888576371677358,-2.6064659754745363,-2.8343130159235996,2.0518345943668304
2023-12-06 16:50:18.016828,0.8151421845035013,1.2674385688752645,2.758065079233763,-2.235194378620933
2023-12-06 16:50:18.026113,6.242420871963725,1.4621803829185709,4.205985041309828,-7.867101390660117
2023-12-06 16:50:18.031641,3.4938708720267333,1.7024385373133115,4.233811008086335,-5.47594692185675
2023-12-06 16:50:18.036926,-7.219696534636338,3.061827755775281,6.165183991645078,2.9601023268866578
2023-12-06 16:50:18.039946,-10.410591947620793,3.053115293873994,6.921637285798971,5.209502781140723
2023-12-06 16:50:18.045069,0.8450093130130212,1.4778316147551482,3.7391551656030955,-3.047746855913485
2023-12-06 16:50:18.050281,19.50154065924468,-0.7173083242879046,-1.4902907269268033,-16.668491507294764
2023-12-06 16:50:18.055698,20.82149005793918,-1.6045042140649124,-3.365863240594221,-16.849694621929952
2023-12-06 16:50:18.059165,3.1960311942430755,0.725222963668818,1.6199548198378135,-3.9940169101870877
2023-12-06 16:50:18.073534,-5.869021515736718,1.8036615916705732,4.2520956044528315,2.53761099020532
2023-12-06 16:50:18.073534,-3.8217324686898437,1.4706983244536547,4.12983495891132,0.6566432997247651
2023-12-06 16:50:18.074705,1.6519556165645244,4.710246517559063,10.649582378530182,-8.191389769494457
2023-12-06 16:50:18.078097,5.944147151435305,4.561700731584321,10.48751095442826,-12.0867940147212
2023-12-06 16:50:18.087777,1.0744576214035613,0.2059540269064649,1.9449322856444509,-2.593089080942356
2023-12-06 16:50:18.096295,-2.2416087227904655,1.1868358804832333,3.489524352254099,-0.46542426941896387
2023-12-06 16:50:18.099311,0.35830540453575693,2.7888560163760716,7.1618203796172555,-5.180854920959248
2023-12-06 16:50:18.101637,3.5379697745325394,1.294007494118493,4.785979442605996,-6.739983962082674
2023-12-06 16:50:18.105101,6.0161264474783165,2.377077340797825,6.551836067762094,-10.076842242833004
2023-12-06 16:50:18.121443,-2.1832049301180745,4.2394269225081205,10.728158562237548,-5.220560861893499
2023-12-06 16:50:18.122495,-13.274492162532255,5.946288884120186,14.74457473435911,2.391755826406624
2023-12-06 16:50:18.123500,-11.926055689936717,8.585633307994605,19.534037895208005,-1.8266084504599631
2023-12-06 16:50:18.126724,-0.308694395199534,7.491605204131507,16.34855882549241,-10.481949611760207
2023-12-06 16:50:18.135175,8.927640878934266,5.4830996807302705,11.646437391369806,-15.998298050344921
2023-12-06 16:50:18.140256,0.01465030686057809,7.190973786148731,15.934338613541673,-10.571960832388736
2023-12-06 16:50:18.144376,-9.60471972439099,6.582177338248883,14.993391267121009,-1.1138217692185663
2023-12-06 16:50:18.148636,-2.3201415662196694,3.435900431944498,7.576915324191951,-4.030834776980991
2023-12-06 16:50:18.154727,0.34972989878974303,3.3176625949483336,6.61055843720179,-6.373283475822259
2023-12-06 16:50:18.157118,-5.6969900512481475,3.2674441261667146,7.508493830624183,0.03846841304911493
2023-12-06 16:50:18.164131,-8.744555115027115,3.2535803317742,8.275646552426629,3.0543094766594248
2023-12-06 16:50:18.172234,-8.90938304610673,4.646093055373468,11.272828741746771,0.6466122335598482
2023-12-06 16:50:18.174252,-4.286686710179315,6.0610459970014,13.362279048467181,-6.711503480889074
2023-12-06 16:50:18.178613,-1.070054164643415,7.146690641536725,15.265227890600046,-12.158203633389245
2023-12-06 16:50:18.181668,-4.210743317105996,8.017958218284216,17.56779868153705,-10.37732221664026
2023-12-06 16:50:18.198138,-4.725235568303596,8.392523058199009,18.040951467895074,-10.230658640825025
2023-12-06 16:50:18.199486,-5.98598195500289,6.720747425888544,14.877276135570051,-5.958334101830355
2023-12-06 16:50:18.199486,-10.473444919383716,4.690294458015837,12.136513654051413,1.9957544711793391
2023-12-06 16:50:18.205169,-7.612179198175117,4.764631887606206,12.086358876684509,-1.3956833382811396
2023-12-06 16:50:18.213658,-3.6824783361094426,6.264080217164162,14.124177022615534,-8.08566542870006
2023-12-06 16:50:18.219941,-6.804876839686512,9.653419373807353,21.779080096099566,-10.990716491357212
2023-12-06 16:50:18.224129,-12.797251317708367,8.919568117737256,21.713398022830965,-3.3921196592838916
2023-12-06 16:50:18.230290,-16.51926306826801,2.112884254934942,8.804009149383077,13.025253955712655
2023-12-06 16:50:18.233750,-12.694762287981948,1.5040185944193403,8.168770838358716,9.175051548942871
2023-12-06 16:50:18.241197,-8.415636469545262,6.175789467516594,17.140151261352166,-4.29367190687302
2023-12-06 16:50:18.245455,-4.2926699559470665,5.609655215849211,13.513758797731796,-6.7686772719000405
2023-12-06 16:50:18.259294,0.3695633274624205,3.029481031780591,6.392481955239404,-6.72435666046255
2023-12-06 16:50:18.266719,-4.3440724777556206,2.8589279680014115,6.738388042793774,-0.8432164231191452
2023-12-06 16:50:18.266719,-1.3120520550712693,2.723248470548958,5.676114550129093,-3.972674516847856
2023-12-06 16:50:18.269951,9.622491949165381,1.141115401892522,0.27584782465348134,-13.85934822930765
2023-12-06 16:50:18.272973,6.622538685135271,-0.2965308975646673,-2.578241749581983,-7.108367836063502
2023-12-06 16:50:18.277303,3.8104357423517974,-0.09931283536485085,-2.3928103477265306,-3.5791030379299804
2023-12-06 16:50:18.285665,2.357347222484281,-0.23157549536488606,-2.534149782923644,-1.4902009841077712
2023-12-06 16:50:18.298946,-2.9391212479741435,-0.7063297567541821,-1.9433772772029845,5.730160296293785
2023-12-06 16:50:18.299956,6.149625620524344,0.18828840541650724,-1.6711390881608184,-7.8226052095998595
2023-12-06 16:50:18.304350,12.865546267789556,-0.5251665616117768,-4.58302313414683,-15.086726260180463
2023-12-06 16:50:18.306589,-0.4153429585986208,-3.2795792235123655,-7.444504973154861,7.893075031293937
2023-12-06 16:50:18.311643,-7.440220177923378,-2.9862156831439215,-5.2470825915818295,16.592233594800156
2023-12-06 16:50:18.316896,-1.1527788910860128,0.0008046514740258603,-0.0534708823691906,1.423685075244155
2023-12-06 16:50:18.334001,1.667175076390293,0.7283616773483842,0.8797092386385384,-4.039078293053602
2023-12-06 16:50:18.334001,5.948206890182119,-0.18877983226947057,-2.846669915387847,-7.1693650541731495
2023-12-06 16:50:18.336079,9.983975418524354,-0.3164849593886572,-4.3577259179186285,-12.476353472810231
2023-12-06 16:50:18.342156,1.1427847661337291,-1.1152509650136413,-3.105360753997726,1.198082647631347
2023-12-06 16:50:18.349919,-4.0977887512462905,-1.592493019695439,-2.3833507506905325,9.61746135121026
2023-12-06 16:50:18.353432,2.0899069316284544,0.4422363273893343,0.13528503213789456,-4.274263047957839
2023-12-06 16:50:18.357850,1.5565543591858637,1.6863965271597232,2.4004466259352317,-6.002166443818925
2023-12-06 16:50:18.362087,-1.2793581967511212,0.3637865707513913,-0.5398269132599537,2.533930349704893
2023-12-06 16:50:18.368281,2.7019927854220454,-0.955120221647413,-3.4787290065938805,-1.495962029380825
2023-12-06 16:50:18.373599,5.892307974488207,-2.4024826750498307,-5.440291880970369,-5.0823807525559355
2023-12-06 16:50:18.379608,7.607943339183628,-3.2996583532251567,-8.87344922349152,-4.574090743477661
2023-12-06 16:50:18.385953,6.684209221390354,-1.372061254981348,-5.9492549674873825,-6.713187881988729
2023-12-06 16:50:18.401163,1.5661527177010242,0.6496715043217174,0.48133506113793484,-4.158744613698119
2023-12-06 16:50:18.409161,-2.034027513341415,1.043195331013748,3.061789045980235,0.1815644470624556
2023-12-06 16:50:18.409161,-3.626367463388153,2.0105672459586055,7.158156680413088,-1.642846330506206
2023-12-06 16:50:18.411192,-1.0866464273669492,2.751399133305284,9.028990575502583,-9.874861028769155
2023-12-06 16:50:18.418285,2.6057567753628508,1.8000053275900965,4.710892992066401,-12.648800036364031
2023-12-06 16:50:18.422359,-2.68782310187878,0.31467065946591133,2.537221277594779,3.4455820980897105
2023-12-06 16:50:18.424469,-7.983484719970483,-0.8275865234227204,2.344721236820172,17.347053003637864
2023-12-06 16:50:18.431046,-5.367060125784197,-1.6075649874346574,0.8906225746484531,13.32558678634532
2023-12-06 16:50:18.442053,-0.24938014289386676,-1.4915260139375055,-1.333619642230295,3.179281056006809
2023-12-06 16:50:18.449056,7.041393201305291,-0.5530969793009833,-5.950943915977513,-10.868809605056374
2023-12-06 16:50:18.451061,8.556431992989172,-0.280470440947197,-8.320620405532145,-12.55519946080976
2023-12-06 16:50:18.458055,1.5356371300876108,-0.038918968083467294,-3.8478311316105547,0.5568192011997639
2023-12-06 16:50:18.462074,-3.277717459158534,1.1616578581522323,2.4631536008553283,4.8801140634545686
2023-12-06 16:50:18.471433,-3.7553592506034135,1.6667573040006174,5.208600726161415,2.4304395756171973
2023-12-06 16:50:18.474916,0.9493414546885973,1.3328963322684233,1.5767899841656514,-6.4918241349273975
2023-12-06 16:50:18.477996,4.37173164599651,0.09080457825943464,-5.988669767354748,-5.163821380785726
2023-12-06 16:50:18.483049,-1.099229481152455,-1.5660520136358451,-7.063086385916332,16.71946812978492
2023-12-06 16:50:18.488191,-2.5807119533108676,-0.5877709490007712,-0.6516855298593115,10.516893883921982
2023-12-06 16:50:18.496403,2.9501133456568986,1.3680167321916659,2.5476115422345895,-17.765429515862216
2023-12-06 16:50:18.502755,5.322996590050943,0.9745595168603811,-0.8053341453778601,-21.07523078743838
2023-12-06 16:50:18.508794,5.246813615325648,-0.794982623458509,-7.1528814021704035,-7.381934139454932
2023-12-06 16:50:18.513914,3.170819376823308,-2.0169816662735878,-8.895131539608455,5.967725408762564
2023-12-06 16:50:18.517011,-0.9750640431381526,-1.2290200583732893,-1.8114840148108642,9.215882747772774
2023-12-06 16:50:18.523391,-3.2401386724589503,-0.13575698748077353,2.768877838730222,9.262405368839172
2023-12-06 16:50:18.539396,-1.5459354702334112,-0.17537594772947002,-0.3683449713286543,8.735125108203261
2023-12-06 16:50:18.540413,2.269800318872778,0.3536022548968061,-3.1958815175143567,-4.523349116909763
2023-12-06 16:50:18.542462,2.1646125057762284,-0.04367279773897849,-4.687651703470069,-0.3159865473963432
2023-12-06 16:50:18.559866,-0.97692470722512,-1.341586401196006,-4.714412246817757,18.93404031688745
2023-12-06 16:50:18.559866,-1.1563652641747861,-0.5760614498277021,-1.7100574082565219,11.617833518455901
2023-12-06 16:50:18.561888,0.9752212824018021,0.6229979765447079,-1.0921737392664188,-4.245049571576753
2023-12-06 16:50:18.567937,3.3145516452932617,0.5280184669197957,-4.763395879832598,-8.74630719566663
2023-12-06 16:50:18.579198,2.203421238198656,0.1805931023075919,-4.256614376408033,-2.525870360645966
2023-12-06 16:50:18.584211,-3.957832611445982,0.5658407823412372,5.412722812664058,11.315521496162175
2023-12-06 16:50:18.594214,-5.636340296611162,1.6704507824502042,10.83421993039201,3.571119725645624
2023-12-06 16:50:18.603215,0.04868804756665841,1.3299494856073175,1.9232235699671412,-12.335698982697819
2023-12-06 16:50:18.606213,2.220154411563177,-0.13123715402623615,-4.730186438449421,-2.8176237374024278
2023-12-06 16:50:18.627355,-0.23361846715095486,0.1193349664190014,-0.2924282855110489,1.298323541287907
2023-12-06 16:50:18.628355,-0.5865382438243794,0.6308923615798634,1.275008860623353,-5.731798784267375
2023-12-06 16:50:18.630354,0.0011093435708819921,0.07246703507630446,-1.4718474866525417,2.1580121905982494
2023-12-06 16:50:18.635499,0.5824746315593421,0.8257626747678914,-1.5864162698651358,-7.28758525536028
2023-12-06 16:50:18.642770,1.675165429927315,1.8756224927251428,-1.8043207063863704,-28.598229358828085
2023-12-06 16:50:18.651777,1.6000346769265141,1.01293535740725,-3.4258929783207397,-16.257238213003205
2023-12-06 16:50:18.656779,1.7627826875843728,0.15207684833873386,-5.80900586815345,2.0759871835530963
2023-12-06 16:50:18.660778,1.9157421392763851,-0.03192106769234942,-6.2748556320176805,2.3745022772197566
2023-12-06 16:50:18.664797,-0.5139288894173998,-0.1283117199582667,0.11765952926650346,-6.2064294676218195
2023-12-06 16:50:18.671869,-2.597145568186105,0.19668530079953475,5.5418517666644105,-14.517204845257618
2023-12-06 16:50:18.677879,-0.2575178261582779,-0.2457496740134744,-0.3051450590788028,-6.37268133769811
2023-12-06 16:50:18.683882,1.4871692167048565,-1.0553390006294594,-4.535327019577713,-1.1794858068362244
2023-12-06 16:50:18.700525,-3.2561836515145686,-1.1854832169329823,6.713998792234643,-0.10053100583429818
2023-12-06 16:50:18.700525,-8.047958465096034,-1.3802859366702682,18.417989452971508,2.107221649065438
2023-12-06 16:50:18.702547,-8.247241366941399,-1.016695428977331,18.950906351269357,-23.85376553651962
2023-12-06 16:50:18.707133,-8.650944299736391,-0.4431071509632454,19.41179023599574,-40.216865713085085
2023-12-06 16:50:18.714207,-9.403408430251318,-0.9995388940598116,21.721609966518773,-20.450252949321158
2023-12-06 16:50:18.731398,-7.602966730303085,-1.549143821390583,17.96599230708321,-6.571617947588331
2023-12-06 16:50:18.732407,-4.782500227621503,-0.8826900359318535,10.697798258377361,-10.802736232132723
2023-12-06 16:50:18.733416,-3.7866438233367896,-0.12488705343660193,7.3734018088622175,-22.307593999901307
2023-12-06 16:50:18.736570,-3.175599404436485,-1.1457578746556094,7.470432754276998,-8.310125729530139
2023-12-06 16:50:18.745732,-1.033334750227648,-2.7632421884547482,6.075801670789209,26.65072882050842
2023-12-06 16:50:18.751888,-0.7145560819151067,-2.295357657814817,4.832931092377947,22.28239443906461
2023-12-06 16:50:18.758939,-1.0328344404580563,-0.4834826949543609,1.5539553690528825,-9.402993021364734
2023-12-06 16:50:18.774951,2.822520544014699,-0.020588622488630567,-8.463756762227659,-13.508664681584383
2023-12-06 16:50:18.775965,6.895917974393271,-1.0071273821975297,-15.174769341464666,7.816614699862641
2023-12-06 16:50:18.775965,6.333060026869524,-1.191239472322759,-12.725500756603427,14.427928690869365
2023-12-06 16:50:18.777981,5.3823136208860065,-1.1281734970244146,-10.443709384654712,14.356577027208424
2023-12-06 16:50:18.786215,7.058809640773171,-1.2738064495530308,-12.919210510713581,23.94319593966779
2023-12-06 16:50:18.795294,8.160845392145252,0.61133740050459,-19.995446332365006,0.3000191104358891
2023-12-06 16:50:18.802357,10.403491368106053,1.7579249472008298,-28.829223155487366,-16.644453499734066
2023-12-06 16:50:18.811361,13.294666695011648,0.07080495914972258,-29.1180348715886,18.831359838259104
2023-12-06 16:50:18.815365,11.93087488574651,-0.5243566028658346,-23.164114947476182,31.404568982292673
2023-12-06 16:50:18.817369,11.153450976500034,0.3279038614924579,-24.66832040967714,14.34910823675705
2023-12-06 16:50:18.822382,11.060013416041281,0.8510602263507446,-26.601514605725963,3.5998534537069475
2023-12-06 16:50:18.826443,8.520008228538583,0.7970050415759597,-20.775804422009145,0.7197172294377886
2023-12-06 16:50:18.834210,9.971598198607992,-0.24977646848700505,-18.745777696992928,25.908557542516395
2023-12-06 16:50:18.845499,12.01789113570007,-0.9676087786721603,-19.621450094257085,44.40860952720414
2023-12-06 16:50:18.854559,9.72630540597321,-0.5649260201476973,-16.972655954962864,30.554400175428505
2023-12-06 16:50:18.860755,7.203847749835286,0.30373672110634053,-15.519007590674699,9.32436933182173
2023-12-06 16:50:18.864797,4.764339186520529,0.8591709501627272,-14.144535629837536,-11.308053715074603
2023-12-06 16:50:18.870021,6.1002105442098395,-0.04785217538108007,-13.983569348784432,2.7889999289867795
2023-12-06 16:50:18.876209,10.961867766079108,-1.3047803928664892,-16.384950783591155,43.61870586389798
2023-12-06 16:50:18.894407,11.149718483158784,-0.7295669248570055,-17.621389978177277,41.208281117680905
2023-12-06 16:50:18.894407,10.01637027390409,0.9537813917183507,-22.790147469306298,9.194121930855163
2023-12-06 16:50:18.894407,11.680967212126236,1.4951086060780967,-28.198752171974412,4.5515625936268505
2023-12-06 16:50:18.898448,10.875569389808831,0.6363668822124476,-22.534098899826095,18.794614987053595
2023-12-06 16:50:18.903521,8.359849904420491,-0.30655288172219414,-13.300126759026417,29.757975069473652
2023-12-06 16:50:18.926852,6.86516700147065,0.3085117737021427,-10.460057681430373,29.518175847078187
2023-12-06 16:50:18.926852,5.653456270987422,0.5736368719984866,-10.980350611000187,6.8900622872533255
2023-12-06 16:50:18.928852,3.6569692050787714,1.1510582776267457,-10.780752493889922,-18.649732582256625
2023-12-06 16:50:18.932369,3.9559894270306026,1.0938111815726903,-10.723496632449708,-14.505201429134702
2023-12-06 16:50:18.937380,3.52566085891458,0.048473372458870505,-5.958670730762807,4.011030020026996
2023-12-06 16:50:18.952375,1.4493829640759328,-0.5613190943448864,0.3105508971959808,13.071048527897442
2023-12-06 16:50:18.957376,2.888229493231676,0.3331698678521094,-4.369422114332702,10.573610849431457
2023-12-06 16:50:18.962433,6.332508250954514,0.9272321068879051,-11.974882990324373,14.32651225398516
2023-12-06 16:50:18.967489,7.2592243790641335,0.12108449356102104,-10.75475429415938,30.787045913925102
2023-12-06 16:50:18.971678,6.1399390760480115,-0.7210851196281609,-6.926025482050918,33.51242440385076
2023-12-06 16:50:18.977728,3.807066522837626,-0.5754299405953126,-4.567185140348665,15.524718979586215
2023-12-06 16:50:18.983770,2.1681574106383916,0.3136710884511877,-4.378168676134849,-1.6449716673021975
2023-12-06 16:50:19.002203,3.059300849577625,0.1665604857278501,-5.222901054894349,2.0351683694400395
2023-12-06 16:50:19.002203,3.446417539857974,-0.8458448150673678,-2.6203450278934985,19.04990376291743
2023-12-06 16:50:19.005237,2.7523286380683163,-1.1528431371513976,0.35077780800570785,31.898743753265723
2023-12-06 16:50:19.008274,4.3957990621820535,-1.0366369564395816,-2.4748746794078085,47.5231391383014
2023-12-06 16:50:19.015460,5.884481896061436,0.8012140437097025,-10.410602044629421,36.01956512597025
2023-12-06 16:50:19.020510,4.9809928472177925,3.102484207270017,-15.792526295905253,-9.44050556998875
2023-12-06 16:50:19.028620,5.96990331691931,2.5975238443049444,-16.954975952506334,-12.6284460545144
2023-12-06 16:50:19.035301,7.979724614765792,1.7606291673235532,-18.237210138992076,17.665088425591446
2023-12-06 16:50:19.042705,6.879288756524857,1.7124977430753179,-16.11477199019764,19.854321207859183
2023-12-06 16:50:19.062387,5.2354235968501985,2.048825511871806,-13.895674766721932,7.463750783512572
2023-12-06 16:50:19.062387,6.93357555889681,4.0786467719330375,-20.96413023600937,-10.996998623837179
2023-12-06 16:50:19.064389,10.783506574602763,5.034462270602657,-29.967288614375768,-18.082242539037185
2023-12-06 16:50:19.082395,10.968840599103482,4.3345642300847125,-29.193269923343323,8.76099052899287
2023-12-06 16:50:19.083393,7.194079902964005,3.5460389799260086,-20.92671501948144,18.980459823690847
2023-12-06 16:50:19.084393,6.429732827519802,2.319212475986771,-17.020793395440787,-0.15968624723259447
2023-12-06 16:50:19.089393,7.571096085056403,3.214669033723079,-20.28138699611389,-4.221966847354275
2023-12-06 16:50:19.098057,7.4247473147490215,4.773736450019993,-22.411550396412984,-0.8352887403011584
2023-12-06 16:50:19.105604,7.9130382635142364,4.134168759756198,-22.470582298695064,1.4493293994976477
2023-12-06 16:50:19.113961,6.397983955517737,3.8213377330495253,-19.96577685793546,10.764188932076319
2023-12-06 16:50:19.117193,4.447178667219301,2.7540848781236145,-14.23843368842039,10.638705985399001
2023-12-06 16:50:19.123289,6.020896160547582,1.0180594116382928,-13.142992374646111,5.03842160072121
2023-12-06 16:50:19.131879,7.012903953954181,1.1323578108422534,-14.25543666111025,1.0104093181666403
2023-12-06 16:50:19.137961,6.65583990577936,0.3888118462104215,-11.258644766765368,-6.024089504473187
2023-12-06 16:50:19.143185,4.913511377728496,0.1200114270282862,-8.622149477637187,-0.022888685187110243
2023-12-06 16:50:19.158880,1.476556314261425,2.1211083316188826,-7.027793924477982,5.366536496407071
2023-12-06 16:50:19.159891,3.126656791341133,1.5128602606770667,-5.8457796150898735,-12.013098229341002
2023-12-06 16:50:19.160900,6.52044652721136,-0.5168596578406754,-5.932692255644378,-20.152278512439132
2023-12-06 16:50:19.164940,2.7846577860744732,-0.39034158025237786,-2.145904920146911,-5.926417132730995
2023-12-06 16:50:19.172149,-1.4137782809195898,-0.9422557438690167,3.1182840844212314,5.15085490223495
2023-12-06 16:50:19.180242,-0.8081296363927991,-2.3806943794568447,4.3130992362092515,6.546147021512835
2023-12-06 16:50:19.187514,1.176317395955438,-2.6577230224398085,5.031399126756681,-5.26874226626699
2023-12-06 16:50:19.191561,4.23749389862582,-2.5827089374913097,3.9182557262307016,-18.727883568421884
2023-12-06 16:50:19.198645,3.11917851434135,-1.8658494791998046,1.8588406271893978,-8.19428423211186
2023-12-06 16:50:19.204714,-2.7002757929296686,0.7029662697941027,2.8840232988005434,3.739511907837286
2023-12-06 16:50:19.214864,-2.111011388145018,2.779830349437159,-0.06241114676277089,-3.4215732265616
2023-12-06 16:50:19.232527,2.9384889776587073,1.4152155966983015,-4.103136465629072,-7.436064812240751
2023-12-06 16:50:19.244410,3.326115564722263,-0.821651825159898,-1.146690289715634,-3.79086615028202
2023-12-06 16:50:19.245418,0.6920595563620507,-1.7280423580316941,3.1109695907238915,1.4597226510216323
2023-12-06 16:50:19.248574,-1.9158468774975628,-1.7901744450387496,4.658914371520094,6.813250143429229
2023-12-06 16:50:19.252683,-2.9658235612693646,-1.3515256455593483,5.480115366486289,5.126587001004581
2023-12-06 16:50:19.261730,2.662787322291113,-5.0881177783562,8.457188070632785,-5.666009386630123
2023-12-06 16:50:19.268727,12.985787318775516,-9.517019504884257,8.591337310841508,-21.576658284663825
2023-12-06 16:50:19.271721,12.92076120697811,-5.626181307618055,2.3785076806809307,-22.07910613091648
2023-12-06 16:50:19.282821,1.3082682635565044,-1.2274580336283445,2.78589129770318,-2.4905630174366555
2023-12-06 16:50:19.288874,-4.8442390770143815,-2.1082492750265605,8.849794460831937,6.950398159200539
2023-12-06 16:50:19.293967,-0.3388546241981299,-2.5705467847164747,7.466112769047555,-3.0841751113924247
2023-12-06 16:50:19.300176,7.5761582798895795,-3.17221731929496,2.667637892676132,-13.385500312217667
2023-12-06 16:50:19.307276,8.696060539897072,-3.513636249424524,0.8761363765316826,-9.53346463673555
2023-12-06 16:50:19.313519,0.6828251350334841,-1.0232966347709571,2.002041198038074,0.4758137073120077
2023-12-06 16:50:19.318575,-5.870742271457602,1.8050586595948308,4.348839384930393,2.47225126000875
2023-12-06 16:50:19.324688,-2.6941777290792484,0.39645784517905713,5.0617945187272415,-1.5936057348249395
2023-12-06 16:50:19.331463,7.189320717168834,-5.488092141678584,4.488262352148841,-5.237516697328282
2023-12-06 16:50:19.338574,4.967108805815977,-6.724038661661406,5.338166943475259,3.737404247383385
2023-12-06 16:50:19.347728,-6.569647346602637,-2.748620314950573,7.273641332843561,14.191685214934052
2023-12-06 16:50:19.353911,-2.612041795499114,-2.8761472520191846,7.278790254144249,3.873970541604289
2023-12-06 16:50:19.360424,2.3221274438838932,-3.619988778177888,7.189125497545027,-3.919068316685169
2023-12-06 16:50:19.367515,2.3961135300153855,-2.7282318395691183,7.446891247254048,-5.211039722669431
2023-12-06 16:50:19.371691,11.991789409242473,-6.262794582826075,6.34490229638952,-11.04289369849489
2023-12-06 16:50:19.378917,7.050256484522398,-8.407857304367447,8.542420116944779,0.6350128123995616
2023-12-06 16:50:19.383997,-8.118901278145067,-5.105717433678011,12.302460371312327,12.008253685086189
2023-12-06 16:50:19.405279,-3.641749272221045,-4.9168742591413315,11.890871452939201,3.7050430453014034
2023-12-06 16:50:19.414622,5.472463453648907,-7.37650403509888,9.282978923821375,-0.5217848647407523
2023-12-06 16:50:19.414622,4.991488005966383,-5.643816866550084,6.671182254197587,0.04304560258674424
2023-12-06 16:50:19.414622,1.3548403701866625,-2.0349158457959953,5.139691004822102,-1.6257555164121875
2023-12-06 16:50:19.418793,-5.402916082864869,-0.11346199543270616,6.260909738980806,1.878499965795369
2023-12-06 16:50:19.423842,-12.152584280992254,-0.7854985738539231,9.066706035780506,9.51622961794437
2023-12-06 16:50:19.427925,-6.185930783098368,-2.517367275953413,7.2610740555939435,7.863200768402914
2023-12-06 16:50:19.447819,6.503931398199276,0.5186578552952316,0.20115451262608963,-6.351594096435009
2023-12-06 16:50:19.451812,1.192197010661376,5.277948564819735,-0.514796024263386,-8.517794048336462
2023-12-06 16:50:19.454815,-14.128820540988714,4.240436869361389,4.894681639085365,5.355163698809719
2023-12-06 16:50:19.457813,-13.46295143309637,1.2257163722249842,6.256814702945021,7.769697592484226
2023-12-06 16:50:19.463989,2.1890500285321908,-1.6767051014013694,5.319413370450006,-3.3993308110246487
2023-12-06 16:50:19.487481,14.897415559182837,-5.2267500862748735,4.3598449899140945,-8.663676448357963
2023-12-06 16:50:19.488483,9.548105735281432,-4.347276655219477,2.7377020084082524,-2.5670806649830316
2023-12-06 16:50:19.492499,-7.390647671576235,-0.44254404000990466,4.474207633608483,5.775210139496684
2023-12-06 16:50:19.496688,-12.229694034326679,1.5517355855692294,6.747968306550492,4.264866383235916
2023-12-06 16:50:19.502772,5.035920592915983,-0.6759476231163327,4.338343927970633,-6.55138891452265
2023-12-06 16:50:19.509834,15.238460990862434,-7.098064942228742,4.886129386995089,-4.634973548435406
2023-12-06 16:50:19.514835,-2.402720607915483,-9.192724877191164,10.19701763124646,10.976487750287072
2023-12-06 16:50:19.520848,-10.697126785766125,-2.7418248098468077,7.792316859875522,8.714712721098921
2023-12-06 16:50:19.537367,-4.88980036588256,4.416832812273281,1.8136468095506457,-3.7285800069994965
2023-12-06 16:50:19.540411,-9.732800244559165,6.370265115331706,2.511883360466235,-3.0386635347335167
2023-12-06 16:50:19.545554,-3.3906979099301857,8.189712990836995,-0.4001104492357816,-8.302490261908728
2023-12-06 16:50:19.552645,3.8458944123739545,14.225422421458415,-6.985639213978016,-17.99713896463647
2023-12-06 16:50:19.571982,-10.246183601862652,13.824950199819115,-3.06917842745204,-9.665129206591672
2023-12-06 16:50:19.571982,-17.175584880568913,3.8759668807164287,6.115518360620491,2.9593003453500524
2023-12-06 16:50:19.574001,-6.730470964764658,-3.5734852988724124,8.471923100441371,4.3913434962586715
2023-12-06 16:50:19.595672,9.20248072953839,-7.385241854168375,6.286117485231587,0.7767048649972242
2023-12-06 16:50:19.596687,14.608100304062058,-11.605391355426098,7.65666686295011,2.457065720839473
2023-12-06 16:50:19.597715,-1.035538271390974,-16.204635322112253,15.004891294677309,14.095313205115866
2023-12-06 16:50:19.601754,-14.11046328568266,-19.736893399957165,21.001441613766527,23.162980555707925
2023-12-06 16:50:19.605936,-6.560255469026037,-17.206989663478343,17.742560996214518,16.740157840667475
2023-12-06 16:50:19.619030,8.118726874747091,-14.048752114176656,11.789741136745686,7.312537549390738
2023-12-06 16:50:19.627028,10.486435915902314,-17.430561802495713,13.015628819642883,9.971306331200857
2023-12-06 16:50:19.632545,-2.498922115790512,-15.717161303546437,15.01924095415699,13.847106505948405
2023-12-06 16:50:19.637766,-12.009112330651346,-8.23780480412245,12.78252330515897,10.384550605994852
2023-12-06 16:50:19.658944,-2.5297028952348684,-10.505573148864759,11.623142396220944,8.592300293057635
2023-12-06 16:50:19.658944,12.077445937137774,-14.917874097228573,9.634698336700303,7.656060599536798
2023-12-06 16:50:19.659952,11.004612265891517,-11.55010284699527,7.260292236381387,5.580392075926362
2023-12-06 16:50:19.664101,-0.9980121908289863,-9.759646151975062,9.673057168917035,8.09532198441643
2023-12-06 16:50:19.670150,-11.229082326656606,-9.663093200787307,12.70947298193239,11.238432441152039
2023-12-06 16:50:19.686222,-6.695375417368793,-10.17531238410011,11.806524592413377,9.926594981108593
2023-12-06 16:50:19.689224,16.574496280512555,-15.422365992382659,8.218813936416847,6.615398524597481
2023-12-06 16:50:19.694224,25.13530447151972,-17.16376247695163,6.687075713623647,5.435913035696463
2023-12-06 16:50:19.710514,3.3493811824021904,-11.009311093878036,9.371043727676152,7.103136709254825
2023-12-06 16:50:19.713520,-14.040521291656452,-6.309038011615934,11.356531081819918,8.375890148660558
2023-12-06 16:50:19.717532,-11.295478108311523,-8.94757161038721,11.697794735967685,9.933520276824556
2023-12-06 16:50:19.719535,1.036285018434223,-15.589320060342597,12.302250076197677,11.963502647559581
2023-12-06 16:50:19.726527,14.399249337361734,-22.074644459088752,12.790936905421896,13.347333844152018
2023-12-06 16:50:19.735094,5.892800723142697,-22.11936036149936,14.83259359242003,16.264663619471015
2023-12-06 16:50:19.741136,-14.002150274163238,-16.35985303215455,16.402088640161637,17.51059655476458
2023-12-06 16:50:19.749201,1.6714786887813802,-19.93559244212934,14.590777171719457,15.092933600099741
2023-12-06 16:50:19.755276,26.321878089331125,-25.131753143029616,11.52520876361244,11.321131893229236
2023-12-06 16:50:19.779756,12.708371330358412,-17.614313624750185,10.561794051372535,9.03899526392964
2023-12-06 16:50:19.779756,-5.996501985336839,-14.730459966377254,13.135160816687451,12.761669259216301
2023-12-06 16:50:19.781795,-3.822665767923282,-14.665548847745962,12.182712826938634,11.842247533497211
2023-12-06 16:50:19.784817,1.1856050370723317,-2.8713316701080425,0.1346095607336141,2.1258400762091125
2023-12-06 16:50:19.788861,7.223719236516938,5.750714116045774,-4.264134397076092,-6.5310570727600545
2023-12-06 16:50:19.801041,25.908733259929804,-3.7900522231529026,-5.3810751193936905,-2.7887766737911295
2023-12-06 16:50:19.806279,24.739228002179104,-20.787831270727953,2.4512188119758074,12.08203938071546
2023-12-06 16:50:19.829304,-9.711438671264993,-21.953450153395114,13.359804590679365,21.375373429296054
2023-12-06 16:50:19.830812,-23.606995814029567,-2.8468352185056593,8.376824843978204,8.195713054964108
2023-12-06 16:50:19.832825,-0.33565577063857616,5.189252088789763,-3.1879708382847585,-4.46499471466528
2023-12-06 16:50:19.837854,14.68657828109916,0.36758153782194436,-5.298706900573616,-3.8919547734065296
2023-12-06 16:50:19.844907,0.04325270867983136,5.606288396619422,-2.7152894318538845,-4.788900899610264
2023-12-06 16:50:19.853109,-16.520183653989182,10.20097647980481,-0.13459134158762098,-4.814367438890525
2023-12-06 16:50:19.865188,-8.498688920899628,10.364330484823089,-2.892055289071182,-6.926358582896331
2023-12-06 16:50:19.868211,-2.892722371584488,16.137534675142195,-7.581233332303232,-13.299892061471619
2023-12-06 16:50:19.874258,-9.659687159913402,13.888396467577957,-3.291509718629899,-9.541778391474228
2023-12-06 16:50:19.878356,-12.293518890693402,12.068798386596047,0.5589760679359567,-6.984320962388696
2023-12-06 16:50:19.882370,-29.59850949244776,26.6762925858426,-2.8920355886362064,-15.728292305545498
2023-12-06 16:50:19.890450,-38.03723115825187,30.500782435405167,-5.141700570328052,-17.49327398481663
2023-12-06 16:50:19.920714,-12.986804655066067,28.368094676668193,-10.673379552615417,-21.489232533779933
2023-12-06 16:50:19.921712,-6.8203929518241075,44.2171490340727,-17.562822548591825,-36.23526233250567
2023-12-06 16:50:19.924713,-27.920737376541528,44.06068266820034,-9.227619246111704,-30.745916426698727
2023-12-06 16:50:19.932250,-41.161378729377994,26.598197901060185,2.3871454060174755,-12.62945843127065
2023-12-06 16:50:19.940288,-45.96305815322186,30.821121563754062,-2.4080791228715226,-15.818296713988449
2023-12-06 16:50:19.950314,-32.00878177844946,37.96101759402807,-10.67982905924398,-25.417380074328022
2023-12-06 16:50:19.956318,-8.902370945780284,37.12089203731537,-11.874888744359696,-29.328510067510116
2023-12-06 16:50:19.977868,-10.166192912348533,50.77539575900323,-13.810516707623497,-40.12104354221983
2023-12-06 16:50:19.977868,-17.860268253370535,58.647292442504224,-16.18896773623884,-45.22759417123606
2023-12-06 16:50:19.979870,-30.722718302537437,54.17437976816956,-14.823354785637678,-39.06533694651087
2023-12-06 16:50:19.981872,-51.20940405727855,58.34494774150478,-12.028002595920551,-38.025699660180486
2023-12-06 16:50:19.988873,-30.261133375315847,50.36383143590741,-9.109088791188768,-35.23780395391682
2023-12-06 16:50:20.015060,-1.8757389807637423,30.733863249876293,-6.500472281385061,-24.75233493929841
2023-12-06 16:50:20.015060,-16.490224093954687,28.591534583575246,-6.797056039573559,-20.374755308667083
2023-12-06 16:50:20.015060,-26.18579565524842,34.11641805881612,-8.970100622544937,-23.24182116956116
2023-12-06 16:50:20.020063,-13.117490416191918,38.54767256100051,-12.04227140581263,-29.65792720618959
2023-12-06 16:50:20.025096,3.612206888855145,39.5809610211611,-17.65841924298744,-34.49632317290351
2023-12-06 16:50:20.042718,6.62762291361789,32.14406675851308,-17.822531350195128,-29.25023947721091
2023-12-06 16:50:20.046723,-13.087163336231926,29.85056296985986,-10.130510057683589,-22.534704369771653
2023-12-06 16:50:20.050718,-25.945704147840157,29.05647750917586,-7.847780278103211,-19.154874060192505
2023-12-06 16:50:20.055718,-25.121508656501803,21.51084709221941,-12.492166821981769,-14.154238481324805
2023-12-06 16:50:20.067722,-11.88033869439047,20.006848839610104,-18.64228283246674,-16.425099724141322
2023-12-06 16:50:20.073723,-2.823632969329297,27.37577067379918,-24.361461755063498,-24.786371823790027
2023-12-06 16:50:20.082725,-27.20737794698049,33.84586660601886,-28.81682907806561,-26.063551551407887
2023-12-06 16:50:20.102902,-35.12332073038486,31.209991314474767,-38.3798387656661,-24.089416568255395
2023-12-06 16:50:20.102902,-18.335433284719667,26.406277411593397,-46.151045633600155,-24.676248309149603
2023-12-06 16:50:20.105951,-15.236777962534507,28.20694892674651,-51.33814121418309,-27.48675673689675
2023-12-06 16:50:20.110119,-8.343797919926116,30.261821913801526,-69.60046577205819,-33.29287684694258
2023-12-06 16:50:20.117214,-25.33572464493343,33.7887663306716,-85.0777179110488,-35.42997614793769
2023-12-06 16:50:20.122254,-52.82773064619179,29.168690529783483,-88.78632078202247,-27.40806920456052
2023-12-06 16:50:20.132006,-21.816583602568798,1.527377272984202,-96.54412099688585,-12.73337297607881
2023-12-06 16:50:20.140012,21.94282529105546,-22.677308405932862,-100.85704059567733,-2.4882064984410563
2023-12-06 16:50:20.145009,30.46266903274403,-22.892033614841687,-102.9465099000368,-4.193225004766783
2023-12-06 16:50:20.172089,18.534979927145027,-15.242442686840391,-111.03186888932913,-9.292910308918653
2023-12-06 16:50:20.172089,-4.925116542828853,-14.185536755354196,-112.03456459058269,-6.040645598779493
2023-12-06 16:50:20.175120,-13.796223293503054,-24.588339181483747,-106.85974884313359,4.490940392006012
2023-12-06 16:50:20.195534,0.21578366897596882,-35.972234427515815,-104.68095686878132,11.185124068031605
2023-12-06 16:50:20.196533,19.025993257144155,-38.8518756477133,-103.44621562058798,10.251797308909975
2023-12-06 16:50:20.197535,28.24738322112377,-41.62330148403654,-101.452513278907,11.08275423828171
2023-12-06 16:50:20.202534,16.705912774917127,-43.85091486532863,-98.27459572353611,15.38734979073206
2023-12-06 16:50:20.205537,3.437983789216331,-42.33867685005933,-96.68028132546043,16.824568486210996
2023-12-06 16:50:20.211550,8.334856468734321,-40.64563447400986,-97.88605539714682,14.43889836447299
2023-12-06 16:50:20.218698,16.630127096467984,-41.15007742960862,-94.5066669423929,13.900462691365128
2023-12-06 16:50:20.227786,16.95498337526441,-45.761511211843725,-84.25227897162982,19.068986015251127
2023-12-06 16:50:20.236470,9.271446764740237,-43.77833917080782,-78.48413195336308,19.802937758276073
2023-12-06 16:50:20.242470,-5.961876069893275,-32.369108952878896,-82.12927453077724,13.030342189806104
2023-12-06 16:50:20.252469,-11.82662047018504,-23.05784063214005,-82.05540388475694,6.833340488797269
2023-12-06 16:50:20.269675,6.971854111249776,-16.905765060995204,-74.1162442420013,0.03277448555882822
2023-12-06 16:50:20.276698,28.694202319148047,-24.092704076216613,-68.00543100768397,2.7949533684814556
2023-12-06 16:50:20.290700,18.953960689997047,-43.69734244733368,-57.50398209439537,21.38027180642031
2023-12-06 16:50:20.293703,1.7086460375534143,-46.430702261273886,-42.7364754750864,28.852597291418906
2023-12-06 16:50:20.298702,21.452734775279417,-30.287184545557437,-45.05914897836677,12.537927383603405
2023-12-06 16:50:20.303705,36.140925118181165,-16.22881314543895,-52.35834881967378,-2.0570046218390816
2023-12-06 16:50:20.310956,11.231221507349586,-16.533842524640505,-41.14937664442083,4.276562310844991
2023-12-06 16:50:20.322928,-3.7055800717925194,-29.496592052392593,-27.73070305891059,19.024004211960865
2023-12-06 16:50:20.330490,-1.8087669235872819,-36.19831589628438,-20.62189224596469,25.009310415307457
2023-12-06 16:50:20.341723,-0.9341977374556406,-33.94499419320252,-12.431119592556467,24.412022384410133
2023-12-06 16:50:20.346795,15.13593913883916,-34.68890238532405,-6.8518034972991835,23.122217130305106
2023-12-06 16:50:20.352864,28.326516592025285,-31.05806902700248,-3.108589853883735,18.660247584974353
2023-12-06 16:50:20.375225,19.578789210490317,-18.52289425118264,-0.6823091481515232,10.847748438071388
2023-12-06 16:50:20.387557,5.167400440412185,-11.267097775342556,1.7822437892034517,8.079569226011621
2023-12-06 16:50:20.387557,2.3117806232917,-15.228948757835248,6.015481450914469,12.29361113422269
2023-12-06 16:50:20.390612,19.87059055719885,-25.537685104219392,9.998373774693228,17.91804354183615
2023-12-06 16:50:20.395665,33.86210077219693,-33.34754378824574,19.636496621047442,23.123668777260082
2023-12-06 16:50:20.403935,20.517001135233446,-24.31100129601767,26.615733215818405,19.506287950667797
2023-12-06 16:50:20.412075,3.91529636998746,-14.185245650771133,19.751364437296555,13.385015973480666
2023-12-06 16:50:20.417235,6.683216838491599,-23.767488985208367,11.041648981556568,18.92058740367686
2023-12-06 16:50:20.423313,23.924914835423372,-27.74284094567672,8.216296914735183,18.65300809507522
2023-12-06 16:50:20.431599,39.050665246847416,-23.44029155765844,14.957611977551327,13.890563390654394
2023-12-06 16:50:20.440213,30.195812874658294,-28.83411497040936,28.708802393698104,21.70874629482456
2023-12-06 16:50:20.447903,3.464897767371994,-23.854987370895003,31.52407365360898,22.754088706869457
2023-12-06 16:50:20.457269,-4.585442677956526,-10.40842444557064,22.472374195562207,12.287791374333855
2023-12-06 16:50:20.480970,13.04835487736155,-4.770368105863235,19.902458311416677,4.622292066523894
2023-12-06 16:50:20.482007,17.503705423615436,3.9258309175130943,34.933085951584594,-0.41620234220866825
2023-12-06 16:50:20.483017,-4.609122603029278,9.262226431989577,51.86822066417104,1.8056075623326862
2023-12-06 16:50:20.487060,-19.59576866530948,5.292949425291948,52.53164406844251,7.419017747976289
2023-12-06 16:50:20.495504,-14.735799118338434,3.909787609588545,55.15341386884159,8.09331002999493
2023-12-06 16:50:20.502934,0.9179079117695392,-0.2743286084233923,69.76196286325747,11.059864908307896
2023-12-06 16:50:20.512044,16.73308393843443,-2.6505646899247055,81.84083001607387,12.216818950008953
2023-12-06 16:50:20.523173,8.657101902823344,10.172133884972713,83.1990239548591,3.895970818582147
2023-12-06 16:50:20.528358,-10.169579749190884,13.046227216134874,67.72027367374925,2.2955180584570054
2023-12-06 16:50:20.534937,-8.93108205705414,-4.915769433518937,58.90503447932586,14.486073930311637
2023-12-06 16:50:20.541059,4.014305159213981,-8.006922261673012,74.45603212072973,17.218731480419464
2023-12-06 16:50:20.548143,15.159799672081958,10.47022828420987,84.3324431193267,2.7943980543417313
2023-12-06 16:50:20.575969,7.468780523861263,25.74952951431558,78.15114417799045,-8.665870281194522
2023-12-06 16:50:20.586430,-14.378842518534203,28.351821996172013,64.55935086732063,-9.28957035390525
2023-12-06 16:50:20.587436,-13.906607176163911,21.09981561007946,63.96749600975768,-3.898933955358254
2023-12-06 16:50:20.589628,11.934554059935897,12.61868208873138,88.11560640483603,2.2696167383993857
2023-12-06 16:50:20.594726,32.54908395035378,12.165429039666147,96.76476342383499,0.6781921919477204
2023-12-06 16:50:20.601797,13.576801300432411,25.399982392586345,97.6834675388546,-6.276490659334968
2023-12-06 16:50:20.610091,-21.487186591060574,40.4911842555312,111.10513138010478,-10.10666645345263
2023-12-06 16:50:20.617623,-27.936418985060268,48.593554409198845,108.86889233114222,-15.641560167220407
2023-12-06 16:50:20.624623,-22.438490096542655,59.194108944364345,118.49351361877191,-23.122870156653914
2023-12-06 16:50:20.632139,-7.7342644199295725,54.56394525708762,143.72046032612602,-17.933781065119003
2023-12-06 16:50:20.642535,-3.066714395163364,34.973032538540274,155.5395875360667,-1.802838050317002
2023-12-06 16:50:20.650618,-26.100840261714428,30.6915190971344,173.95767103618547,8.050182420443994
2023-12-06 16:50:20.676571,-20.897377893075447,32.3069356217402,174.32556997456473,6.038979685925135
2023-12-06 16:50:20.676571,4.635159591217968,37.23924259853366,152.61413851780986,-5.225712833213385
2023-12-06 16:50:20.679832,21.08508806704616,45.77381192271998,165.12480566934119,-12.392414182823417
2023-12-06 16:50:20.685056,26.43279023055441,39.864382209222626,195.32376335950931,-3.9435245912167196
2023-12-06 16:50:20.693320,-3.6301689746767467,36.57854482405115,195.8265384399475,3.415168223051506
2023-12-06 16:50:20.700649,-16.737093819459815,39.02008619719457,173.82839559732523,0.14606276537268195
2023-12-06 16:50:20.707734,6.381560101196521,34.4859314426457,163.989241306972,-1.5963492970288395
2023-12-06 16:50:20.713881,13.006247870531364,33.79017785353782,170.8461035361352,-1.0281464223854913
2023-12-06 16:50:20.721261,23.416557632738538,25.52449222763133,172.6597705831702,3.938776701259074
2023-12-06 16:50:20.733210,25.644955407879554,13.020481252751612,167.25362264449666,12.301266554770345
2023-12-06 16:50:20.738264,-2.6559224941301016,22.19295935039802,151.28185168976455,7.230457751464433
2023-12-06 16:50:20.747706,-6.94539252468816,31.207735142741903,129.2022897819279,-2.4750551846250524
2023-12-06 16:50:20.756987,7.939340736118876,22.42623805459665,122.67910303284273,0.8646159120078319
2023-12-06 16:50:20.762027,8.799596960629087,14.597046732619896,130.19466957964167,7.904426070468833
2023-12-06 16:50:20.771118,2.668166652866062,11.916559624979499,138.82703380525493,12.284255935242877
2023-12-06 16:50:20.797876,-11.678006384104949,16.93780981198673,130.48732920318153,9.38885924234121
2023-12-06 16:50:20.798893,-7.980909831237185,28.205147956277788,107.13258771471112,-0.5712159854267042
2023-12-06 16:50:20.799904,19.286645473872767,26.33355585985792,99.53914895015771,-5.680221296782196
2023-12-06 16:50:20.803918,31.332186782189215,10.979260684852369,101.52611137067699,4.082162960058612
2023-12-06 16:50:20.812010,15.941436092610783,0.4635990318839423,94.9646363412995,14.55695752944446
2023-12-06 16:50:20.819080,3.4459599328064034,0.6342004751565117,80.37273155966798,14.168472228277393
2023-12-06 16:50:20.829082,14.186138118531497,8.100986456639923,58.5700659642171,2.7779494273517855
2023-12-06 16:50:20.839338,25.682180908494594,11.908477712368565,48.64926306369687,-2.639451528435175
2023-12-06 16:50:20.847340,22.609800140536915,1.9232831146751568,49.226914560279525,5.646942621756636
2023-12-06 16:50:20.870752,12.860946028729039,-10.36419370214595,40.70284813859337,14.76000570605461
2023-12-06 16:50:20.870752,-4.778515077040624,-10.362868338109315,24.3121103791637,15.166031714570908
2023-12-06 16:50:20.872821,0.1298355668964572,-3.811632376482387,-2.0690185736739184,3.8411956593404657
2023-12-06 16:50:20.877864,10.666058047363508,5.869150734042858,-21.22145351121096,-7.364217463591491
2023-12-06 16:50:20.884102,-9.694314169978309,10.680449977613982,-18.72388590360859,-4.009418260730786
2023-12-06 16:50:20.892493,-1.3515715130327584,-6.366440557264668,-24.58301189372867,4.407847831507943
2023-12-06 16:50:20.903717,9.3537652181185,-24.76633384557555,-40.224232319722375,10.372779418325043
2023-12-06 16:50:20.912984,-25.603076829057155,-22.780334512563318,-44.91310663180844,14.599022328199878
2023-12-06 16:50:20.922059,-26.79311098752741,-15.938751068930817,-48.808635336362144,9.98368742994289
2023-12-06 16:50:20.931767,0.7545298900620598,-8.937470255254992,-52.55438788878063,0.6919825202284797
2023-12-06 16:50:20.937771,6.185378577313452,-5.442629644072356,-48.614077638438495,-0.5968571722641202
2023-12-06 16:50:20.945791,-3.8167368594295072,-12.013779944166515,-45.075049042870546,6.558049253655729
2023-12-06 16:50:20.974010,-16.488642314282135,-16.389501392585966,-50.9453825228779,9.7881940206118
2023-12-06 16:50:20.975019,5.319212862994567,-17.015804997240064,-67.99510105732685,0.4770733845687892
2023-12-06 16:50:20.976352,18.749062099307707,-9.54415311397551,-74.4918785934039,-7.394599081873439
2023-12-06 16:50:20.982664,-8.66100141124761,1.5507643756600364,-61.38057817625906,-2.5639033765201162
2023-12-06 16:50:20.990157,-7.68615838564954,-8.859892519678136,-58.91345146589988,2.3297338461171577
2023-12-06 16:50:21.025752,-6.761227141356455,-19.817345804415115,-62.30510387597225,2.9224423066206175
2023-12-06 16:50:21.026762,-16.93568582301129,-12.280760414528071,-49.86093275159451,3.3107706301103033
2023-12-06 16:50:21.029800,14.533114459525923,-8.785734220832262,-42.61021101317846,-1.0661652577245457
2023-12-06 16:50:21.034656,19.70409711586086,-7.421978290462751,-43.567306614462666,-1.9803677872877326
2023-12-06 16:50:21.042982,-18.716966541515315,-10.910065606709288,-39.62321660574084,8.165226114322884
2023-12-06 16:50:21.051305,-32.28036591118595,-22.086909721795116,-38.92356468277619,14.156443328171049
2023-12-06 16:50:21.062411,-19.508041202659797,-17.81467209833547,-37.3749540337708,8.191979674874174
2023-12-06 16:50:21.085271,7.237958112775287,-8.930011284406435,-36.320496777345085,-1.2688707390812661
2023-12-06 16:50:21.085271,17.077899170511873,-4.864808194352111,-46.9717453468247,-7.921533220791407
2023-12-06 16:50:21.087518,-4.130278597319346,3.5373735252159455,-57.95759775494635,-9.965618734351256
2023-12-06 16:50:21.092582,-18.148211087785064,-2.5595222944688167,-62.692194567688006,-8.81731022725708
2023-12-06 16:50:21.099131,-19.144479475947982,-15.490441989104658,-58.61312578162959,-4.28946345584317
2023-12-06 16:50:21.107496,-5.096493201829177,-8.353771260683805,-36.05075619264256,2.3708275210100602
2023-12-06 16:50:21.116661,12.33223189290941,6.260633258628925,-24.275077030278716,-1.1822110317856822
2023-12-06 16:50:21.123730,1.8439643400729084,16.819558575672517,-49.36502582580616,-18.65198187271832
2023-12-06 16:50:21.131351,-17.315817928874466,21.406569827472897,-65.61372619878964,-26.08634282127001
2023-12-06 16:50:21.138356,-27.43687694101584,12.045167430547377,-46.397085544871715,-13.824630145489426
2023-12-06 16:50:21.147358,-17.15546261930251,-1.093962703716646,-27.0814649266786,-5.622421652649029
2023-12-06 16:50:21.157967,10.94809762400525,-2.9262646222690263,-18.239303005980876,-5.809095995536591
2023-12-06 16:50:21.186132,6.077101916497371,7.064802406040589,-15.891722533090388,-4.191100542701804
2023-12-06 16:50:21.186132,-17.06551038152506,12.206348372780203,-23.244090115003814,-5.908296140249737
2023-12-06 16:50:21.187142,-11.704938495293671,0.8796431588139846,-24.093094120277588,-9.893537726074191
2023-12-06 16:50:21.192381,-2.29832103857152,-2.811929179820692,-19.676397525671273,-12.796861728869978
2023-12-06 16:50:21.199513,-3.6848007134341256,8.078023061336738,-22.84315520786671,-13.806465751872027
2023-12-06 16:50:21.207556,-7.816833618830434,8.73048466011187,-24.988493245375107,-10.887786488786874
2023-12-06 16:50:21.217561,-18.622001169924662,1.9827836355701185,-22.109020766603088,-8.587591943333983
2023-12-06 16:50:21.245149,-26.741992867350234,-2.6162182428488925,-16.428631453079216,-6.206826148927831
2023-12-06 16:50:21.245149,-23.024350986185883,-5.3673779742597745,-6.473459465655275,-1.5851981629255392
2023-12-06 16:50:21.247148,-14.75889589330551,-4.546379318997308,4.102205031170322,3.2869857277848773
2023-12-06 16:50:21.252191,-9.653042603384497,-5.540868841792602,4.7997955830239745,3.0264052071664347
2023-12-06 16:50:21.256392,-7.069082570488918,-1.9511850857421085,-10.201861435816346,-7.417850186282997
2023-12-06 16:50:21.265534,-11.900989395840242,5.516341072865123,-21.925062170368566,-14.35200208379352
2023-12-06 16:50:21.274869,-10.717063424531382,1.781697800213671,-14.07212741541497,-12.665426875073013
2023-12-06 16:50:21.293099,11.246890097396777,-4.9639250944672,-4.946362372687897,-15.265878518110858
2023-12-06 16:50:21.301102,11.371534688451174,-4.23962245911799,-9.6368392100478,-16.96542256136445
2023-12-06 16:50:21.308156,-20.331319688493164,-0.4397208135206324,-17.96737626301646,-13.427632213296157
2023-12-06 16:50:21.315327,-34.62246434470076,-0.2176136484799558,-17.846103067652273,-11.853500142297632
2023-12-06 16:50:21.321411,-21.234836538364245,-3.807217963398143,-6.951794342871852,-9.079747996289763
2023-12-06 16:50:21.328532,0.29986696163876886,-2.9379117356675506,4.724039712084872,-2.8611165797223346
2023-12-06 16:50:21.336618,6.498721240622922,-0.8032494573134438,9.852572892408189,5.900656612004364
2023-12-06 16:50:21.344810,-2.0815925232081818,-1.6698685571474845,12.356750823694819,10.190943860630352
2023-12-06 16:50:21.354945,-5.870500503021813,2.556848748124752,4.299847576224793,-5.438312531689974
2023-12-06 16:50:21.368739,-5.325319492685205,12.267927742477912,-11.928991754986624,-18.738661615466174
2023-12-06 16:50:21.389525,7.550029309514162,15.151688344824931,-8.331916937876912,-3.233576472751584
2023-12-06 16:50:21.390678,13.138122868388962,4.750502856415567,7.694087815370248,4.478345278728182
2023-12-06 16:50:21.391692,-12.48218507431785,-5.169117328070814,9.787699826310202,-8.213836559235755
2023-12-06 16:50:21.395920,-23.888719625050207,-4.749590185202396,5.756120993365562,-10.991305214651291
2023-12-06 16:50:21.402977,-3.9881273816371277,2.0708683188960504,-0.03726222293473941,-10.918577310126125
2023-12-06 16:50:21.423478,12.277985207185006,8.976947581204794,-4.03974521756199,-8.454542800977682
2023-12-06 16:50:21.435004,11.034130926266295,3.690299797680555,5.051417361664332,-2.7441047520030133
2023-12-06 16:50:21.439007,-8.301302148277246,-5.0817741851234866,9.317015723161594,-11.188888668805056
2023-12-06 16:50:21.444012,-27.024487593624354,-3.9686934913271474,3.982929621798778,-15.602928285788927
2023-12-06 16:50:21.472012,-21.21593407214163,-4.652803558868526,5.880951985721561,-14.144322921471236
2023-12-06 16:50:21.472012,3.8462337862502745,-0.8313480833051833,5.1318791817598015,-15.212741514946215
2023-12-06 16:50:21.473012,24.930199420330812,10.603822557713267,0.2488448939692362,-2.38340305019063
2023-12-06 16:50:21.500320,12.660597177967983,8.036574482646458,2.5197403335686643,-3.9529970755915116
2023-12-06 16:50:21.501334,-22.46632907517842,-1.5851721416670312,3.4125648098763266,-28.124054151063493
2023-12-06 16:50:21.503344,-28.806420820723908,-5.650812154241071,5.001110825903082,-28.90281929635154
2023-12-06 16:50:21.507368,1.0192485017300819,-9.97839374193542,14.722273434333559,-15.997018983115066
2023-12-06 16:50:21.514538,28.816316912550732,-7.741485450924066,19.081368446431632,-9.40189032200762
2023-12-06 16:50:21.523647,15.994230886824013,0.1382894347338746,10.641698744580784,2.3766120017810684
2023-12-06 16:50:21.530632,-28.423431368468798,1.976373223515189,-1.460599547401493,-2.3340517827288534
2023-12-06 16:50:21.545166,-33.079044497340625,5.0852212273450474,-8.950875099226709,-18.125699344929675
2023-12-06 16:50:21.559488,7.398863721558627,11.443122367260619,-7.648261376698132,-10.407799575895963
2023-12-06 16:50:21.568491,23.301145335375626,7.546145415694437,2.2357362947057697,-3.5324983727410113
2023-12-06 16:50:21.573494,4.31049010478689,-2.38489463006747,10.92756806252808,-5.123419386570406
2023-12-06 16:50:21.581494,-16.960099218212246,-5.613635921148543,11.888051896068296,10.198906897094517
2023-12-06 16:50:21.611092,-18.284898161806222,-3.9129857600840805,10.16136015266246,13.980784303325569
2023-12-06 16:50:21.611092,-0.508202401107313,1.8625068389055548,2.4151552840527875,-5.181884862392663
2023-12-06 16:50:21.613109,5.892747943589219,8.997079088086771,-9.953922553800428,-8.784148918298152
2023-12-06 16:50:21.620184,-3.3672994531745513,6.700540093440816,-9.32634733215933,3.997825376451952
2023-12-06 16:50:21.624317,-7.535901513451336,0.36779476644425185,-1.1741070147042627,2.844634022837181
2023-12-06 16:50:21.634891,-15.163081345163588,-1.180576837157773,-1.5312373806291717,-17.937676182209625
2023-12-06 16:50:21.645904,-21.35109656969449,0.433448876387151,-6.7606754986374025,-27.614697148116402
2023-12-06 16:50:21.650890,2.9239597976967677,8.56305985206542,-13.843098428751928,-2.044138660739276
2023-12-06 16:50:21.660903,16.57453867616769,12.404120903220706,-15.70141361960077,17.34056025509915
2023-12-06 16:50:21.669897,-26.259926192268612,0.8130456262676147,-6.941472460188863,-6.452429895011962
2023-12-06 16:50:21.676901,-53.82139962275582,-6.080574339583463,-2.333921660453995,-27.108716687866607
2023-12-06 16:50:21.711101,-17.452552987152483,-0.358777261892949,-4.19781410654724,-19.345848909948938
2023-12-06 16:50:21.721325,11.949227878425251,0.9851140659095661,-1.0158286446474443,-8.45129627832589
2023-12-06 16:50:21.722347,1.3432734260883914,-3.5953498804097177,3.8975027645000138,6.065693102011227
2023-12-06 16:50:21.723358,-11.406222983341994,-5.121933940281168,3.7799693608354303,9.489761713623887
2023-12-06 16:50:21.727414,-20.79380014477938,-3.5012754404349486,-0.332977992783666,-10.174659961419461
2023-12-06 16:50:21.734072,-19.10515092802895,-1.1079890513802613,-2.9344753112296544,-25.267567634524195
2023-12-06 16:50:21.746337,9.999680070247981,3.74718305281391,-4.476879655258439,-19.153114346091396
2023-12-06 16:50:21.753392,25.915067820883785,8.644506859691187,-10.148316522874643,7.535900873020628
2023-12-06 16:50:21.773774,4.201322643452759,7.775410398787663,-13.115080792742592,14.204404204823822
2023-12-06 16:50:21.777783,-22.787593084841966,7.3565568264927235,-15.483436449438207,-16.978111563746655
2023-12-06 16:50:21.784791,-25.601706149146768,11.93466747259181,-22.95980857984109,-29.761457656130496
2023-12-06 16:50:21.789805,-3.1158917649084654,8.81701249714926,-15.16590596577119,-16.736990478476795
2023-12-06 16:50:21.798151,8.976442363349182,-2.2161749300047693,3.9857339432659376,0.4443069157421636
2023-12-06 16:50:21.829881,-4.673771910098827,-6.871117566438828,7.764428234518802,19.324933548936112
2023-12-06 16:50:21.830890,-21.910387588182203,-6.932960944240405,5.297288827526919,5.833732779598475
2023-12-06 16:50:21.831891,-28.728668543808578,-2.519722814424888,-0.5051873097811089,-25.958316533335882
2023-12-06 16:50:21.838281,-12.015811285841043,9.520917738285332,-16.85367509457574,-17.771880137273108
2023-12-06 16:50:21.845235,2.159045913390847,9.170490401575249,-15.220355643196468,6.250702102977184
2023-12-06 16:50:21.851257,-19.53828633730026,-7.169453024297646,7.484465564283293,-0.9523271515253849
2023-12-06 16:50:21.855401,-37.308875087909286,-12.313495416092481,13.053351067925366,-9.89925798067704
2023-12-06 16:50:21.862449,-28.7556284092389,-3.7837629549794087,1.4557609863678451,-11.29220267941421
2023-12-06 16:50:21.868708,-18.48524696082271,2.5801179881727307,-5.280219001957883,-29.246086883641095
2023-12-06 16:50:21.892295,-0.32720311616677156,9.244512922936591,-13.982062133842355,-18.531764210317267
2023-12-06 16:50:21.900435,9.18836480192108,15.18855516607962,-24.225349933597712,14.370222072331522
2023-12-06 16:50:21.910530,-23.376345873035618,8.20139214653722,-17.211985312509956,2.2383906275697827
2023-12-06 16:50:21.918550,-40.502992796411746,-4.226932948637951,2.097344100239489,-11.036313977074974
2023-12-06 16:50:21.947086,-6.366638696780967,-6.495562928977043,8.925854219955097,5.753272316879852
2023-12-06 16:50:21.947086,2.104622501779755,-1.0727099027873161,3.6096173390696293,-7.570473939565961
2023-12-06 16:50:21.949218,-9.614779969093423,2.6415398429476644,-1.8387318178079153,-27.042008630801813
2023-12-06 16:50:21.953242,-3.851236543627823,3.450019093015623,-4.987309943635883,-15.20656795974366
2023-12-06 16:50:21.962335,-14.117412953317181,0.5557307174445335,-3.111077066049611,-10.45026032269268
2023-12-06 16:50:21.972536,-21.24662890553582,-2.7856097761565737,3.144777945483895,-19.536752598562938
2023-12-06 16:50:21.980603,-0.7092007022378336,-2.2332910928141763,4.599844176123854,-10.2670121846421
2023-12-06 16:50:21.993636,15.244219481577172,-1.6721327276044022,3.2366512888225936,5.694548270833064
2023-12-06 16:50:22.004789,6.341551281408441,-0.9256807086047676,-0.6524235040835465,7.6377640953083015
2023-12-06 16:50:22.015096,-17.59664223449368,-1.4934346819020008,-3.185407697200266,3.239348210926049
2023-12-06 16:50:22.021143,-9.242872396545426,-7.39747400865764,9.043892305898568,2.030918512498311
2023-12-06 16:50:22.051029,23.147585725866968,-7.0537819200839005,12.181126907225938,15.106388126902864
