Timestamp,TP9,AF7,AF8,TP10
2023-12-07 14:03:39.411058,-6.840037573375994,-1.009634728662358,-1.6467327786979984,-2.561910889405281
2023-12-07 14:03:39.412092,-0.10043781619636369,-0.0422160076367412,-0.2175303530901647,-0.011163623342875368
2023-12-07 14:03:39.412092,-16.50259322322834,-2.3332687152438196,-3.60140922382361,-5.9185095514068795
2023-12-07 14:03:39.412092,-13.040561542069497,-1.8928377486489028,-2.96029178653285,-4.847584366019174
2023-12-07 14:03:39.413605,8.321819090728482,1.0985970558488702,1.4479906034415937,2.9147865268103685
2023-12-07 14:03:39.414683,10.396552190319982,1.4325043682467795,1.9422203807899807,3.86974908201833
2023-12-07 14:03:39.415797,-6.867806670527944,-1.017485791300811,-1.668658121523418,-2.556750907484558
2023-12-07 14:03:39.415797,-27.484499804084766,-3.986166993088413,-6.040360270590394,-10.448555939676258
2023-12-07 14:03:39.416803,-25.558834040982738,-3.8235294855001594,-5.799877907902495,-10.263667836285435
2023-12-07 14:03:39.417837,-3.815198755939988,-0.9686283544328717,-1.613293038262045,-3.206605501826256
2023-12-07 14:03:39.418929,-0.8802806452590536,-0.6212377888652215,-1.1137653482282168,-2.404549092175545
2023-12-07 14:03:39.418929,-7.444163373402804,-1.2646898107812434,-2.034280752664775,-3.556959272287582
2023-12-07 14:03:39.438852,-9.892568647638775,-1.4063862803786644,-2.213092779602977,-3.5783869410205766
2023-12-07 14:03:39.439858,-25.106506907519968,-3.6558104678927097,-5.511466019002479,-9.728363536115008
2023-12-07 14:03:39.440898,-22.14488145428996,-3.307389150348996,-5.006688774394389,-8.941300826849957
2023-12-07 14:03:39.441979,-0.6086483296626172,-0.2888711525195164,-0.5977203514299553,-0.9763836223382383
2023-12-07 14:03:39.441979,-9.664285679141688,-1.4902037698639359,-2.347043396337516,-4.013407982575968
2023-12-07 14:03:39.443083,-28.027705472536883,-3.920260360824813,-5.866920353193622,-10.203272075327027
2023-12-07 14:03:39.444167,-27.021424669900707,-3.911498219523243,-5.852967657016057,-10.472995936505209
2023-12-07 14:03:39.445175,-13.806881720990829,-2.163050950154385,-3.3156069622605053,-6.0334764846122875
2023-12-07 14:03:39.446178,4.891986954815234,0.5587935861685173,0.6430108640110053,1.4250358192245038
2023-12-07 14:03:39.447464,4.557630621982171,0.50176350389226,0.5629040256045513,1.2432031330332056
2023-12-07 14:03:39.448530,-7.320818681600827,-1.018899883819927,-1.6147896694147266,-2.5905155150009387
2023-12-07 14:03:39.455293,-11.942830266256028,-1.5872962490347502,-2.4276297057087852,-3.970362846881998
2023-12-07 14:03:39.472193,-15.52437861855148,-2.401127717919871,-3.6307563412391493,-6.754128114323527
2023-12-07 14:03:39.472193,-2.3002290176510853,-0.700959476940256,-1.2034735932722738,-2.4238363212836425
2023-12-07 14:03:39.473196,9.37647950263282,1.0899561602520835,1.3733968314497003,2.766160887522832
2023-12-07 14:03:39.475195,-6.574032358686198,-0.7310972921890802,-1.181448217633376,-1.4641726665208683
2023-12-07 14:03:39.476196,-15.435418750948164,-1.4144636955772967,-2.0821190115072348,-2.3524845292816527
2023-12-07 14:03:39.477197,-8.942163003674601,-0.5857645284562271,-0.9103170176023295,-0.21930667607688953
2023-12-07 14:03:39.477197,2.125044433271228,0.4259693859308028,0.45285086996025076,1.635456301737201
2023-12-07 14:03:39.478433,15.3032433772757,2.3466957696882256,3.1609769263819465,7.178178720946673
2023-12-07 14:03:39.479481,2.529358740335131,0.7798247694269027,0.9749778140076445,3.207392854654109
2023-12-07 14:03:39.480851,-20.818781118825587,-2.861203210609243,-4.178121483878987,-7.73467516756862
2023-12-07 14:03:39.481887,-11.941666443101807,-1.7626540940396784,-2.6594177266817987,-4.878954323730752
2023-12-07 14:03:39.483177,11.844605882619444,1.6152755408589732,2.0518628158442502,4.844930267249794
2023-12-07 14:03:39.537537,12.31163163817283,1.1414499250907923,1.312647489559472,2.5646537221848034
2023-12-07 14:03:39.537537,-9.578158048571211,-2.062937099876051,-3.1456389371104674,-6.8984831813854
2023-12-07 14:03:39.543536,-21.63315251142142,-3.037964231767909,-4.374701240179906,-8.526463058311814
2023-12-07 14:03:39.544538,-10.164163881291744,-1.2169319343956395,-1.8303937618693193,-2.881366241011171
2023-12-07 14:03:39.547538,7.8180722704997745,1.0692992038571683,1.2654217316527812,3.4190108119350655
2023-12-07 14:03:39.547538,16.315818384406757,2.7758271310285307,3.672791983178351,9.327296404002682
2023-12-07 14:03:39.548538,8.638306987142789,2.1444420634319243,2.873282300528961,8.245909642146346
2023-12-07 14:03:39.549539,-4.271450651479455,-0.5000611604984636,-0.8444858547608275,-1.025066771113567
2023-12-07 14:03:39.550542,-1.8185548388777484,-0.9059225460664821,-1.5012978588122585,-3.533190806400277
2023-12-07 14:03:39.552540,16.643222009580878,2.0354882809178596,2.5078451907216737,5.9254791457150064
2023-12-07 14:03:39.553541,25.154243530711803,3.5621771122918298,4.593254816198502,11.150723686321243
2023-12-07 14:03:39.553541,7.786341578686999,1.2828725554508789,1.5730055927458289,4.48951778198538
2023-12-07 14:03:39.592040,-3.967357969306154,-0.005569852345439821,-0.06997473268933796,1.1143171811886259
2023-12-07 14:03:39.598253,10.522900438849465,1.7743761962723297,2.2497948854360565,6.15924502861444
2023-12-07 14:03:39.599287,28.20325771546428,3.4522610450343114,4.307002027602961,10.093751760372873
2023-12-07 14:03:39.600286,32.53741748943531,4.100397802517032,5.147438429404174,12.235586283490637
2023-12-07 14:03:39.603289,13.462702555451136,2.694225306426338,3.5363896805574444,9.889367498695691
2023-12-07 14:03:39.605287,-12.810154433591716,0.32428638183821196,0.6960365411576587,4.5279404899805
2023-12-07 14:03:39.607294,-7.73012626050186,0.7666000756707932,1.221545248861361,5.491782537931012
2023-12-07 14:03:39.608289,17.711450540424817,2.3817549117040686,2.916132890171064,7.60507959623117
2023-12-07 14:03:39.610535,30.43722783904198,3.138441823084862,3.6598973909949604,8.508992772888998
2023-12-07 14:03:39.611542,19.443668948510332,2.7477693159815497,3.3842477345082824,9.058788815528228
2023-12-07 14:03:39.612941,-7.780622890392077,-0.22900242215477118,-0.2391857003835392,0.7269948710198457
2023-12-07 14:03:39.614460,-20.82554213698053,-2.7371457957258545,-3.5666297580312674,-8.455446498437789
2023-12-07 14:03:39.619505,-5.480172602611045,-1.0588474837780222,-1.5330498843934663,-3.723333108140355
2023-12-07 14:03:39.619505,12.445934493671901,2.0499874553720434,2.51637441826153,7.363461852253555
2023-12-07 14:03:39.620509,6.3684542277999325,1.7230791763608957,2.219155892646225,7.077368497451712
2023-12-07 14:03:39.622508,-9.071278445979946,-0.8000318870465191,-1.0052548352512984,-1.8411195173845765
2023-12-07 14:03:39.625509,-6.007892143128701,-0.9486477976574804,-1.3157785115882585,-3.19931548071563
2023-12-07 14:03:39.627513,4.3668910115621875,0.08320401154981151,-0.141019421107863,-0.3361219904739201
2023-12-07 14:03:39.630512,12.844546181405725,0.8885886204339843,0.7557352067663864,1.8470089533945233
2023-12-07 14:03:39.631737,20.030248485212375,1.9695180983980178,2.0978178465802833,5.621482022915621
2023-12-07 14:03:39.634392,4.8211433508008685,0.7641460232237713,0.8517315314575032,2.8276504609566175
2023-12-07 14:03:39.635688,-14.365759914430937,-0.8430196775501204,-0.8264996718424545,-1.1802377301047295
2023-12-07 14:03:39.636696,-3.4419820098803267,0.7189186538231778,1.076788960676699,4.221952556152595
2023-12-07 14:03:39.639170,14.173257885880027,2.7671207818652346,3.425622190089427,10.764285303445929
2023-12-07 14:03:39.674846,18.444929557209036,3.5220515591202552,4.359698008599442,13.64112204383565
2023-12-07 14:03:39.675854,10.885201596808628,3.3788169005858775,4.425526995001796,14.39466434993386
2023-12-07 14:03:39.676992,-5.876041644772918,2.1651160003780627,3.2824093270713317,11.6689799651532
2023-12-07 14:03:39.682569,1.5973205231241807,2.1340243342836605,2.9499010595159376,10.142958153300064
2023-12-07 14:03:39.683859,29.13085743960623,4.166653544526161,4.832485176651994,14.981114254963684
2023-12-07 14:03:39.683859,26.568394464594896,4.796638075147331,5.829217433525586,18.570064423218724
2023-12-07 14:03:39.686343,4.8297739487219555,2.418261216751775,3.2238967202628976,10.981615794697177
2023-12-07 14:03:39.687348,-6.932931762993615,-0.3945128099974245,-0.39262303135263477,-0.566338673898999
2023-12-07 14:03:39.688355,-6.941256493118344,-1.0906041422671018,-1.4062386031663172,-3.934979619175874
2023-12-07 14:03:39.689378,7.292580442113398,0.04403840843022037,-0.34939301733872186,-0.9032344642340269
2023-12-07 14:03:39.691390,11.699220278919034,1.1201068012330595,1.02444409491176,3.5774880041040813
2023-12-07 14:03:39.692840,-1.5341870444678187,0.9945329355706142,1.402463710769642,5.243247167490761
2023-12-07 14:03:39.707680,-7.836393483175006,-0.6797044464165602,-0.7408084583261505,-1.8746142733002746
2023-12-07 14:03:39.707680,-2.0572177090290134,-1.5774120553347912,-2.279522392351907,-7.258300552333621
2023-12-07 14:03:39.708685,16.689965078314923,0.8533985819180964,0.4081300419081319,1.4891590312004208
2023-12-07 14:03:39.710975,26.406515867851564,2.6533169356534425,2.5643189872105308,8.715360910993438
2023-12-07 14:03:39.711979,6.260737764285687,1.0262582532193307,1.1100674043816992,4.095371488932331
2023-12-07 14:03:39.711979,-11.06265054574125,-0.4668318780194964,-0.2535649864328501,-0.40856405748577856
2023-12-07 14:03:39.713485,-6.33926022720019,-0.5991453289704131,-0.651558039971065,-1.8423946037690782
2023-12-07 14:03:39.715770,8.07217735771195,0.32680586523006516,0.009453146416534606,0.4175597769666646
2023-12-07 14:03:39.716792,17.612612205941442,1.764974704833954,1.6198392181025603,6.005582380734747
2023-12-07 14:03:39.719145,11.280024082725461,1.5532721305666575,1.608521752944312,5.97729371302567
2023-12-07 14:03:39.720151,1.1709034858085487,0.9161863202554859,1.17434150324504,4.418975992361002
2023-12-07 14:03:39.721157,-1.1981186591432718,1.258358586766292,1.7787886387146514,6.467231543175508
2023-12-07 14:03:39.746363,9.38458763869929,1.6774542167661095,1.8694924370415003,6.910478535405395
2023-12-07 14:03:39.746363,24.66643006574608,2.1857837009451444,1.8479421145768289,7.1171062484075085
2023-12-07 14:03:39.748382,16.335620651692775,2.1188564297900725,2.140605360645145,8.106182054090302
2023-12-07 14:03:39.749393,-2.0057358257272035,1.6278514661690922,2.3309298327368273,8.467675772411607
2023-12-07 14:03:39.750588,-1.7571898895556268,2.3400749874142086,3.337465159350018,11.942351887761314
2023-12-07 14:03:39.756588,13.952623742868663,3.8208319172281544,4.667382111922302,16.93655725278985
2023-12-07 14:03:39.756588,32.71492409231873,4.328618657233023,4.446041179621645,16.707640469685668
2023-12-07 14:03:39.758748,25.101100669830892,3.4990718388851647,3.633524764725639,13.763191567433484
2023-12-07 14:03:39.759758,-4.7205918439326116,2.4905758251945764,3.6952184005294546,13.144638985614952
2023-12-07 14:03:39.762254,-13.773847222838691,1.905572287751747,3.325458856917557,11.550191004782816
2023-12-07 14:03:39.763260,-1.3762189817999777,1.5950012634210602,2.2529529268741144,8.221363810381805
2023-12-07 14:03:39.765522,17.522179481189863,1.9267062490834574,1.7529924447935958,7.16817640300901
2023-12-07 14:03:39.807131,27.83324569244027,2.6112127180156692,2.189527368310365,9.110805925363586
2023-12-07 14:03:39.808172,6.768351234508788,1.5219256404538088,1.725399847886418,6.715551948620546
2023-12-07 14:03:39.809182,-19.672781123176833,-1.5120966855102553,-1.205033768593403,-4.622262696622167
2023-12-07 14:03:39.811261,-11.587612740404944,-1.779920781803857,-2.0017931438171286,-7.102148042382329
2023-12-07 14:03:39.813895,9.397058407212619,1.058385621442347,0.920581297558738,4.079781039482961
2023-12-07 14:03:39.815215,4.29717751323801,1.234691784644504,1.4372785616262476,5.6704049622499975
2023-12-07 14:03:39.817328,-15.550531819184418,-0.29167322411058744,0.3249209659397687,0.8201949499351099
2023-12-07 14:03:39.817328,-23.22156823376294,-0.4451942918850168,0.5181650208911224,1.1004851562013336
2023-12-07 14:03:39.820362,-12.896522851916277,-0.7790340901636076,-0.49609507250646456,-1.99951415192341
2023-12-07 14:03:39.820362,7.904615280099921,-0.7159589908013441,-1.5127271469521046,-4.538116588588732
2023-12-07 14:03:39.822965,8.250994771562851,-0.985584154861928,-1.9159976879104492,-5.916541692656306
2023-12-07 14:03:39.823969,-15.141339370375848,-2.59532923969124,-2.9422589107108323,-10.745955465473964
2023-12-07 14:03:39.843525,-24.872993423520494,-3.0879421909257707,-3.1139482360228903,-11.88838978142345
2023-12-07 14:03:39.843525,-17.367720341219677,-2.5167902291839845,-2.7068045506977514,-10.067729712501242
2023-12-07 14:03:39.845792,-2.057934248736907,-0.9229392271260423,-1.2778557714942822,-4.1933226933913685
2023-12-07 14:03:39.848021,10.864082572037805,0.06924304612819121,-0.5698766613643337,-0.9976327353707874
2023-12-07 14:03:39.849070,-4.339489715347105,-1.6929797042398131,-2.2376411541612446,-7.740385302646383
2023-12-07 14:03:39.851422,-32.95695852437421,-1.93551437642863,-1.041440106494518,-5.07960448453653
2023-12-07 14:03:39.852431,-33.86040903268824,-0.7085618649103135,0.7356176255647726,1.175095580019479
2023-12-07 14:03:39.856627,-6.816873111656617,-0.9914169824343912,-1.1191041215222501,-3.888853826598866
2023-12-07 14:03:39.857634,11.484269391786283,-0.6211350243719281,-1.7010474204400479,-5.626882708813974
2023-12-07 14:03:39.858643,6.0849206291042295,-0.15428920256232104,-0.6719426841984459,-3.3060169195587568
2023-12-07 14:03:39.860660,-11.690049459898988,-1.0719436408597993,-0.9231793935773307,-5.850346342756915
2023-12-07 14:03:39.861665,-29.131306894048972,-2.7468516154985116,-1.8358552692169972,-10.039931212876189
2023-12-07 14:03:39.907735,-12.877899620173189,-2.7653237861816087,-2.329280303376238,-9.877500036097661
2023-12-07 14:03:39.911888,16.63833083475635,-0.5448547300679727,-0.6517236082858061,-1.85110760295639
2023-12-07 14:03:39.911888,0.46923537230538587,-1.0456726529103586,-0.42744459773932864,-2.5480833294524117
2023-12-07 14:03:39.914498,-25.089849031390923,-2.648256811134668,-1.6275519717779339,-8.693718526904146
2023-12-07 14:03:39.916665,-17.628158728514173,-1.4178343970413616,-0.7149978552982811,-4.750028771975846
2023-12-07 14:03:39.917763,0.8357335081565251,-1.019787144708313,-0.9679789025520016,-4.387346300968572
2023-12-07 14:03:39.919820,13.027368808302985,-2.051704012367349,-2.52188026944278,-9.529134808692161
2023-12-07 14:03:39.921857,7.112147066486229,-2.7063357522453435,-3.211688919993896,-12.444130117399443
2023-12-07 14:03:39.922855,-2.5227319181939567,-2.0632230776517804,-2.3754611988978933,-11.297863579930556
2023-12-07 14:03:39.926006,-1.5728947296051607,-0.8526165720693414,-0.23165088844545323,-5.303272678564601
2023-12-07 14:03:39.927015,-2.398006136480265,-2.327472796133177,-1.2957663049371215,-7.66526867554816
2023-12-07 14:03:39.929057,5.351269399373491,-3.165198776703761,-3.3132286742763943,-11.984712715249339
2023-12-07 14:03:39.941250,10.700369922703056,-0.8238523293970897,-1.028318059613958,-3.648020215225805
2023-12-07 14:03:39.941250,-11.989892710184382,-0.9184687914185821,0.12847477245692915,-2.130684233967235
2023-12-07 14:03:39.944260,-29.108541062406655,-3.420037485385312,-2.4947294539193114,-13.164772706897885
2023-12-07 14:03:39.944260,-9.615088075640156,-1.999636498586349,-1.7105813883177552,-8.651974482565643
2023-12-07 14:03:39.946363,10.661052039420532,1.681576800764426,2.3370414915918007,8.847222015342853
2023-12-07 14:03:39.949393,-2.0278812281998557,1.2813046447591712,2.4638566191497575,9.780304620695407
2023-12-07 14:03:39.950399,-22.590403556350264,-0.7862962950179164,0.7177806395292439,0.49675840246788133
2023-12-07 14:03:39.952602,-27.712608271302347,-1.9590323126693592,-0.6257902726803075,-6.797640430655631
2023-12-07 14:03:39.953601,-17.867395430436545,-3.879232865764658,-3.4394971518981596,-15.365746850843049
2023-12-07 14:03:39.963258,8.607946113286673,-2.854020032344752,-3.1512162568163724,-11.362805103288228
2023-12-07 14:03:39.964265,21.608535908932534,-0.24966779078057888,-0.8838625012107837,-2.733740191089562
2023-12-07 14:03:39.966279,2.231061337012538,-0.87804446381856,-0.7411645932045148,-5.674394195770919
2023-12-07 14:03:40.008769,-6.065124607858699,-0.8448054589965447,0.5355679345276405,-3.882485630404017
2023-12-07 14:03:40.009774,11.329955697718596,0.8869370928693465,1.1097809183376868,2.0609303835842385
2023-12-07 14:03:40.011774,15.256924397485342,1.3684520631467563,0.6765172296049334,5.593479016828399
2023-12-07 14:03:40.013278,-0.3418476886407954,0.7120947744908275,2.4094623799475934,9.893102262580433
2023-12-07 14:03:40.015357,-11.303955850331938,-1.0835580968615743,1.448251961794163,0.28045474113857355
2023-12-07 14:03:40.017396,-11.079089688513141,-1.7219678991029113,-1.4448557977210954,-11.697689603037697
2023-12-07 14:03:40.019581,1.9983285809575069,0.8163245185132042,0.5455543376244312,-0.34633735528545073
2023-12-07 14:03:40.021592,22.779297078770195,3.7739576123365386,4.2376762206943335,14.81485961458376
2023-12-07 14:03:40.023593,26.81871639780786,4.398184144887368,4.012501510029232,14.968125035619636
2023-12-07 14:03:40.024594,7.835883924935258,2.327967156793738,1.6164905640961635,9.17565910206816
2023-12-07 14:03:40.026739,-8.353384653268735,-0.20293278156071673,-0.33514700043453705,-1.7746910299632261
2023-12-07 14:03:40.027749,-7.387464974522393,-0.9666748642461239,-1.8032878949341404,-10.201131938913631
2023-12-07 14:03:40.042481,2.433622917525886,-0.9123650994122229,-1.1007244886169916,-1.6505923797982973
2023-12-07 14:03:40.042481,14.308994015810383,-0.46147176483815383,1.0870683577447404,7.087433928172352
2023-12-07 14:03:40.045540,13.167604459729581,0.7162298163579357,0.5490488751228929,1.8385978162795407
2023-12-07 14:03:40.047549,-9.655785841381123,0.8703277393811173,-0.3862472841295451,-0.6223571357071016
2023-12-07 14:03:40.050008,-18.570545347261064,-0.6949361923392672,0.7176419440204436,2.9036152928983268
2023-12-07 14:03:40.052173,7.929554211066902,-1.2803062508406637,0.5248082033140234,3.755720570649191
2023-12-07 14:03:40.054190,26.58835422994836,0.23305828873745194,0.7284706506993236,6.415581264988469
2023-12-07 14:03:40.056216,4.988780494815098,-0.7163923585172531,1.246155429937101,5.424086866522005
2023-12-07 14:03:40.058236,-26.03658422917916,-4.023166651687712,-0.8819711890181151,-2.7151774524090135
2023-12-07 14:03:40.059242,-25.614001447888896,-2.8563768648630843,-0.7766375987649081,-3.06774159640782
2023-12-07 14:03:40.061417,1.1259542480020115,-0.5300819291761057,-0.199374894211053,-0.8039099185488482
2023-12-07 14:03:40.067621,19.74573353530552,-1.1859300557109933,-2.90438965869863,-3.7098112418009643
2023-12-07 14:03:40.077789,12.002190389671199,0.4985593122466247,-1.2256704849282076,1.7559479144684316
2023-12-07 14:03:40.077789,-15.765997015885425,0.2771448698484591,1.6047978108578895,2.383313116487875
2023-12-07 14:03:40.079803,-32.77173044112133,-4.342842788352313,-0.7298960439599069,-9.59927224941453
2023-12-07 14:03:40.082910,-11.818280329703073,-3.170153706933845,-0.24167929748078248,-5.220988131996347
2023-12-07 14:03:40.084932,14.793551250550216,0.8051039965461851,1.249289688662555,7.690641756241034
2023-12-07 14:03:40.087229,5.637791307173185,-1.038830538142238,-2.4953119421400336,4.05981336576341
2023-12-07 14:03:40.088237,-13.066577139860764,-2.5537334327663785,-3.5213532856349414,-1.548054224016962
2023-12-07 14:03:40.091424,-8.937363542265658,0.5312882862182434,0.17255796118542857,3.2578667523938036
2023-12-07 14:03:40.092429,3.795236795268962,1.4769197561148304,0.6709996749475028,6.774971263481841
2023-12-07 14:03:40.095112,11.530044834622945,-1.1844783624444108,-0.8003495418720336,0.022301578850259664
2023-12-07 14:03:40.096118,8.626793150712205,-2.081708654108144,-0.2197287482448076,-9.971114200570524
2023-12-07 14:03:40.098335,-11.328216295850527,-2.8676501235769325,-1.5032291757942768,-16.52073818348399
2023-12-07 14:03:40.142663,-19.905218508972933,-4.547883150918703,-2.9391229619180685,-19.609896924186824
2023-12-07 14:03:40.143665,6.398085402613402,-2.1747495474606384,-0.18385209661158994,-13.221304936483344
2023-12-07 14:03:40.143665,28.44095317641963,1.1973521410146932,-0.17101474437422567,-5.424661562380889
2023-12-07 14:03:40.144758,15.907430906305477,0.3418783038320003,-3.348341934808227,-9.688957468172042
2023-12-07 14:03:40.150814,-5.240461373063017,-1.9185895295774973,-2.75975077503826,-12.579785049836879
2023-12-07 14:03:40.150814,-13.12090547054338,-1.294514615170625,-2.4858356923856273,-7.9132424411969
2023-12-07 14:03:40.153847,-3.357365472996499,1.144462031798948,-3.6041368980551725,-5.331853307528055
2023-12-07 14:03:40.157298,18.634877079675128,0.4551677867757981,-2.1528883447681135,-2.226974811283357
2023-12-07 14:03:40.157298,25.068900556363708,-1.4924707514201427,-2.2379729740810035,-3.312353130086014
2023-12-07 14:03:40.159351,5.71705872226845,-1.6612169470337732,-3.7275895439551903,-15.606350852632414
2023-12-07 14:03:40.162491,-17.193429930683212,-4.294006524947988,-3.4550900561346585,-26.946955425220064
2023-12-07 14:03:40.164942,-17.084095854553276,-6.203077611399205,-3.7323919417860467,-26.261457235473
2023-12-07 14:03:40.176449,9.04609060930953,-3.1223963363632734,-3.452221051032174,-17.70363013422772
2023-12-07 14:03:40.181506,18.772375486939037,-0.9406440121921894,-2.3541380044200895,-11.999699358750664
2023-12-07 14:03:40.183523,-5.839555755600613,-0.6614119786670314,-2.4586999004472556,-10.849872504754853
2023-12-07 14:03:40.184526,-24.1693656253105,-0.8166638745943181,-1.616442480851164,-11.058434193118764
2023-12-07 14:03:40.186533,-15.566508766434108,-1.1796950448735484,-0.41973678000558895,-6.788295299447257
2023-12-07 14:03:40.189916,10.237250170086055,1.791466217012367,-0.1810636915399848,9.642495394026449
2023-12-07 14:03:40.189916,25.37062521780072,4.862949816492555,1.1269814785393115,21.331868730618712
2023-12-07 14:03:40.192174,2.885508623342721,4.073674044531519,1.8399421588984985,15.127416104842904
2023-12-07 14:03:40.196443,-27.775596195694852,1.1196918869932666,-1.6411593004874503,4.72452113074704
2023-12-07 14:03:40.199492,-23.947798953568824,-1.289036885569435,-6.003596944380622,-2.521702459877794
2023-12-07 14:03:40.201955,9.301051421557766,0.24287155054908738,-5.37609838300889,-1.8815888161361014
2023-12-07 14:03:40.205510,28.721193980956826,-0.628079927729004,-5.360431327886014,-2.390169933855692
2023-12-07 14:03:40.241264,7.62989951920017,-5.715606849960266,-10.093976042295967,-14.758553482074243
2023-12-07 14:03:40.244277,-14.817818647699568,-2.6094794593028516,-9.42981172013353,-15.656268483635275
2023-12-07 14:03:40.245289,-5.846477492840315,4.017223115036523,-2.727299167247081,-3.677484761153535
2023-12-07 14:03:40.247304,11.73952663174715,1.9056317184840992,-0.19161365112191522,-2.4494688111759344
2023-12-07 14:03:40.248311,18.612387498236703,-1.9672777178543916,-2.4529726897975475,-6.513645149095263
2023-12-07 14:03:40.252506,9.487008379032078,0.8498462107167928,-3.6443024468815666,-5.226436769263429
2023-12-07 14:03:40.254706,-12.473106432940314,3.770542005605597,-3.4805144500331733,-1.62945167675494
2023-12-07 14:03:40.257750,-22.201795792796094,0.6254880636669659,-5.1180813506457135,0.13702293985422356
2023-12-07 14:03:40.259834,1.1879859341267063,1.1282199534665043,-1.5519886029165946,2.9183398845120214
2023-12-07 14:03:40.260841,31.448963422828857,5.177442501248127,6.704681622460642,5.0308269817973015
2023-12-07 14:03:40.263143,22.87770057172044,0.537249284073761,6.015745926681348,-4.845866321763002
2023-12-07 14:03:40.267190,-12.61839868601977,-3.3160614196083382,1.7658547441161214,-13.996692262629796
2023-12-07 14:03:40.274388,-27.09495178760797,0.822610866208506,0.20397231991837417,-7.853570126955938
2023-12-07 14:03:40.274388,-5.2770718588936525,1.950995686631363,-2.759577042342029,0.7398872141611513
2023-12-07 14:03:40.275505,18.703758867913674,-0.22796661159063974,-0.9966413026285711,8.818040226748067
2023-12-07 14:03:40.283179,6.68225604915292,-0.8748611977535323,2.776764994420136,14.923261873917179
2023-12-07 14:03:40.283179,-17.772182410878198,-0.6590736652691216,1.0380397164724047,7.822645521856273
2023-12-07 14:03:40.285194,-22.312660592943978,1.6388856132170357,-1.730125201141608,-0.27328102150558053
2023-12-07 14:03:40.288323,-9.408151756959898,6.673798155445325,-2.072575132008197,7.944549462448753
2023-12-07 14:03:40.290328,16.75895762041367,8.773171247917025,-0.5485990669375728,18.050075813879157
2023-12-07 14:03:40.293511,26.894247471745878,4.990246195538875,1.0021641024815322,11.65770956313141
2023-12-07 14:03:40.295905,9.686402095315024,2.315078293894124,3.3052557938442595,5.653218122855889
2023-12-07 14:03:40.297921,-0.2378189044812622,1.570528797279362,3.643459689866216,10.663917017929005
2023-12-07 14:03:40.299944,3.8586845086750485,-0.28803803931246513,-0.6203399183889904,9.780243234745512
2023-12-07 14:03:40.308462,14.572229616563309,1.704223045645595,-0.098443621588444,12.225110566936703
2023-12-07 14:03:40.309465,20.873394018215425,5.3095973678063295,2.9468074392358816,20.732417788196006
2023-12-07 14:03:40.310468,-0.21924500720660586,3.134890600369503,1.520328900217489,10.137734187684911
2023-12-07 14:03:40.312482,-23.290094247174704,0.01477151507869906,3.418623619262583,-2.806530703365423
2023-12-07 14:03:40.316764,-10.072432050544464,0.9482112306887734,4.5358462782286475,-0.26587724185323225
2023-12-07 14:03:40.317851,14.578320987199536,-0.9907032337632192,0.8583532648666712,0.21925309785416594
2023-12-07 14:03:40.320197,14.35579077279177,-3.8299288026974327,2.551594434753601,3.0038526836817323
2023-12-07 14:03:40.322549,-5.082009727156702,1.914355076650169,5.461360442831771,6.218778746701318
2023-12-07 14:03:40.325734,-22.150835166240405,6.8563275863847934,3.626574735157013,-0.4573717451495453
2023-12-07 14:03:40.327745,-14.697569801009903,4.055827251235903,1.296359375167204,2.8821424265024156
2023-12-07 14:03:40.330141,17.373168378010952,3.6055624529654087,-1.8365420340950487,11.219194612368952
2023-12-07 14:03:40.332369,30.209621289183655,5.004849873963751,-1.867678574265136,6.296266333904318
2023-12-07 14:03:40.377878,1.5369817771104883,2.8230480737072527,2.267388959431195,1.1457422418336285
2023-12-07 14:03:40.377878,-27.146355543866765,0.5687530439138075,2.8693570279774816,-4.813022514857562
2023-12-07 14:03:40.378889,-19.549986309818163,-1.2669405516540353,1.7595548321109171,-9.833703319100048
2023-12-07 14:03:40.384396,6.704602125464345,-3.6909090056141767,1.4582530515264114,5.50483228072931
2023-12-07 14:03:40.386412,19.305411609419757,-3.7396731582657994,0.6188652457502624,21.57041405756996
2023-12-07 14:03:40.393679,11.30409313991608,-1.697706856935431,1.0597990004422675,12.340120501680497
2023-12-07 14:03:40.393679,-9.001075494011065,-1.7988149645918756,0.5091002828958933,-2.910778409286278
2023-12-07 14:03:40.396810,-20.17309997836953,-0.8012053820216726,-0.49683891022679644,-5.558319570099826
2023-12-07 14:03:40.400009,1.4959129813865215,3.186243929926285,-0.9454207646668651,3.12508825629336
2023-12-07 14:03:40.402291,27.04249843196933,4.712104580864835,-5.0757394731363945,14.367279009745518
2023-12-07 14:03:40.403294,17.591701691892677,3.5451538486044973,-6.8907565208936825,13.902821110850644
2023-12-07 14:03:40.406820,-7.159255304782792,1.8848912183385174,-1.9064730584096268,3.8037344664801167
2023-12-07 14:03:40.410020,-14.790440346670266,1.9191620816955623,1.61736855909226,1.3236287763099608
2023-12-07 14:03:40.412040,3.8145802212364894,4.861464748550503,0.2468338806026391,5.910317936874809
2023-12-07 14:03:40.415626,23.53691604281422,3.538970640120651,-2.5793421548094435,7.497519432475726
2023-12-07 14:03:40.418775,12.485054859132818,2.0099567549639965,-1.4507905700183363,10.317633568501686
2023-12-07 14:03:40.420852,-9.95179249265164,7.105933724031397,2.1834306545290323,8.95413121121531
2023-12-07 14:03:40.421875,-17.889747947512017,3.833286510407613,-1.2724452362205987,-4.111012153799917
2023-12-07 14:03:40.423921,-5.308650583346236,-5.038470845982781,-6.4156661825005,-5.979691179519307
2023-12-07 14:03:40.427117,24.083178008127966,-1.4293396437270476,-2.723036852131278,5.729172956336201
2023-12-07 14:03:40.429199,26.685372086333118,2.7977125703453605,2.5722122791270157,2.353989801357709
2023-12-07 14:03:40.430207,-10.42820669149934,-1.4457533511589689,2.103343292604598,-10.011216385300344
2023-12-07 14:03:40.433234,-31.47859566794775,-2.977298507351661,0.1906595092842844,-10.19898793609894
2023-12-07 14:03:40.437687,-14.04184025916255,-0.38167360430913744,1.337105523832145,-3.799310552199382
2023-12-07 14:03:40.473290,10.000898817829329,2.078392065395818,2.80858453053112,-1.4408904440626076
2023-12-07 14:03:40.473290,13.456923860656985,1.7820629765366416,2.3276787538811377,-0.8248832260319422
2023-12-07 14:03:40.475724,-4.444608351117221,-0.18787376096463967,2.0648342171919793,0.04515638410506973
2023-12-07 14:03:40.481547,-18.477114233581005,-1.0815815040896872,-0.2561456787860849,-2.012746855271141
2023-12-07 14:03:40.484570,-5.146511395543836,-2.5000554388382215,-1.567772363712981,2.9248949999624125
2023-12-07 14:03:40.486617,20.83227708733761,0.07849545176425429,4.257912751902178,14.874201994900954
2023-12-07 14:03:40.490009,21.8498129647965,3.9764730685331884,7.665773723950619,10.16595041298732
2023-12-07 14:03:40.497081,-9.02407712709134,-0.8129314768454678,3.2847971925278467,-5.7299977421093935
2023-12-07 14:03:40.497081,-30.947707254508735,-4.637980048476599,-1.3686437330627803,-7.711925256100611
2023-12-07 14:03:40.499089,-12.307843113555295,-1.1011122843922176,-2.5914333706139208,1.9327529774578895
2023-12-07 14:03:40.504089,15.640773445581925,-0.32454166091487247,0.653594052097836,9.845710420297532
2023-12-07 14:03:40.506602,11.8858073287913,-3.0755432938485523,2.7324202281870615,8.392723615524769
2023-12-07 14:03:40.516672,-10.474843389215641,-3.580132805385593,-0.2815498070064342,-0.10038917136100457
2023-12-07 14:03:40.517675,-22.756063657757217,-2.729635920614742,-1.6392874360182328,-5.400773504974669
2023-12-07 14:03:40.519903,-13.270356209271705,-3.4529265875350945,-2.1291221988291413,-4.030240961434907
2023-12-07 14:03:40.522931,14.417314824433447,-1.1973017732346565,-2.0423697009601143,5.5977995197341475
2023-12-07 14:03:40.526012,28.222183896990746,4.354866198413128,2.4289738795943117,14.073484411833755
2023-12-07 14:03:40.529121,8.744814732768038,2.055663232043539,2.8495340660001007,3.0867906571158996
2023-12-07 14:03:40.531135,-14.27608087152814,-3.4923502489499323,-2.443950856546184,-13.647257687013282
2023-12-07 14:03:40.534317,-13.565307783996523,-0.22608298096750298,-5.231308903624237,-13.485882346349234
2023-12-07 14:03:40.537944,2.6394288940844173,4.702058438121378,-5.756672942299902,-6.901030897018724
2023-12-07 14:03:40.540299,12.806586508250778,4.576572494089041,-3.6249907040637086,-3.590033145998602
2023-12-07 14:03:40.543424,4.36224352053067,2.198122485197479,1.5211652058973597,0.691482399342197
2023-12-07 14:03:40.545445,-12.38350100180587,0.037870145861437124,3.784929159681844,1.1079469928061787
2023-12-07 14:03:40.553546,-15.868134917136357,-0.006026813215311108,1.7642541394168214,-3.119577345243347
2023-12-07 14:03:40.553546,-2.86946447886267,-0.29846319562208434,-1.6015233567325147,-4.414420989033087
2023-12-07 14:03:40.555793,9.13602017755865,-1.188010061827393,-3.4713914764621823,-6.28112586935555
2023-12-07 14:03:40.560120,3.6903134326517884,-0.8223432578320462,-2.4986895136035567,-11.948830294253039
2023-12-07 14:03:40.563141,-13.52240155473241,-0.9161898544330608,-2.0051540833190895,-13.850742370273162
2023-12-07 14:03:40.566317,-15.251317119355273,1.0005987259006337,-1.3782185889988294,-10.919593747339142
2023-12-07 14:03:40.568658,-0.8301626195234569,2.1560702132680514,0.6304765144897286,-6.331746192129324
2023-12-07 14:03:40.572033,-1.5652453730770512,-2.5082912099029344,-3.4058890175326,-4.1309492716210645
2023-12-07 14:03:40.575124,-12.401327209663295,-4.4515840908920215,-9.243349721073322,-10.464179498265754
2023-12-07 14:03:40.582621,-13.603970339686386,-1.676019446675879,-5.48861471642584,-16.62625563560662
2023-12-07 14:03:40.582621,-11.763041241022732,0.8196358488086176,-0.08884962980953803,-12.262581457724536
2023-12-07 14:03:40.584653,-2.014406524999172,2.4797699065449414,-0.7551920961631333,-2.158234962564521
2023-12-07 14:03:40.631808,9.582641027486071,-1.1858895801003264,-1.5348426132970834,7.470988946163323
2023-12-07 14:03:40.632950,4.5428450102527975,-4.629191247409566,-0.48240738110808234,12.295489278120804
2023-12-07 14:03:40.636020,-5.874056178906872,-2.6646148553271787,0.7067457555761434,11.058273067297453
2023-12-07 14:03:40.640055,-10.634702675901448,-3.915519813075034,1.1982720576594812,7.548121743456916
2023-12-07 14:03:40.642749,-1.3914814447981099,-4.573187774342209,0.2543009655303957,7.45768267134727
2023-12-07 14:03:40.645775,18.38617500144656,-1.2941492340522593,0.2454968880495804,13.51469292166075
2023-12-07 14:03:40.648782,15.07744181634144,-1.5355670544237474,1.5880437741575082,17.847394722445756
2023-12-07 14:03:40.651881,-7.264356477523989,-1.9963767007412416,1.147098125050343,13.663185805835383
2023-12-07 14:03:40.653930,-14.704049604789756,-1.4435115606101263,-0.513977111408984,5.956569950614895
2023-12-07 14:03:40.657002,-7.021141607917135,-2.4758726468646826,-1.1190363776061871,2.202473147589953
2023-12-07 14:03:40.660162,4.392552239199704,-0.7953734854192882,-0.7683641430038833,5.181976460428777
2023-12-07 14:03:40.663188,7.650135259355517,0.6893475135301399,0.12519391729914553,8.815720273976739
2023-12-07 14:03:40.666207,-5.153254669129421,-1.2359526619631693,-0.07753657332937328,4.914715741706656
2023-12-07 14:03:40.669588,-14.228732154606218,-1.1712372575999133,-1.6551364095129038,-1.4524235571323454
2023-12-07 14:03:40.671609,-4.709529378211145,1.2326145951046328,-1.4212325421956675,-0.9753174929576155
2023-12-07 14:03:40.672613,11.047644793522553,2.62618942207505,0.5554859976003125,3.7726752765120803
2023-12-07 14:03:40.677151,17.82840420025389,2.567539885849732,1.964219121034369,7.813931561132277
2023-12-07 14:03:40.679169,7.2183070689990245,1.6234394084098789,1.9493558656692542,8.236919937553001
2023-12-07 14:03:40.682248,-11.092960959370382,0.9765811077702528,-0.4634474703094171,1.3781211991799602
2023-12-07 14:03:40.685267,-10.915600175201428,0.714020278216392,-1.768416327658583,-4.388488933271224
2023-12-07 14:03:40.688392,7.563354961175083,0.23137148957257303,1.2071469494801792,-0.19520600396987758
2023-12-07 14:03:40.691435,12.275544914143632,-0.606523925138915,2.0606992353987073,2.886768095732656
2023-12-07 14:03:40.695461,-4.004709083620421,-1.260953265749057,-1.3922336992785276,-2.2208615349413754
2023-12-07 14:03:40.701515,-12.71899848515931,-0.574563969462533,-1.6713035723536462,-4.4466531129626485
2023-12-07 14:03:40.707368,-3.9966299506506036,0.5592843981811526,1.0319564009815712,0.8487778424830611
2023-12-07 14:03:40.707368,5.6717610205727125,0.7208956665364414,1.4704783948383005,6.441392882849754
2023-12-07 14:03:40.708519,8.627896922436381,0.06322747390286158,1.740897843434911,8.847423226026285
2023-12-07 14:03:40.710548,5.6176735782769125,-0.4720867370084256,3.5210014170162975,10.913068158827057
2023-12-07 14:03:40.716079,-1.92076133630259,0.06954747112343553,3.669442963890086,11.704638168231323
2023-12-07 14:03:40.720619,-3.6750219230968524,0.8899896634138793,1.7514040337385044,6.511875897374836
2023-12-07 14:03:40.722635,8.900350077254375,1.7568596632006739,0.22350586892753962,1.7069847680950854
2023-12-07 14:03:40.725689,20.35022071307598,2.5699472571739745,0.005485457033690524,4.288717798706138
2023-12-07 14:03:40.730913,11.514537846692155,1.4448301469578517,0.7549389742462781,5.6443288064497406
2023-12-07 14:03:40.733939,-3.2456759956907857,0.08509083978789904,1.6663806032788187,2.999361743787098
2023-12-07 14:03:40.737347,-3.668022239720165,0.7536420486280992,1.4655143858697812,2.1207091789988084
2023-12-07 14:03:40.740869,4.909596134978298,1.4800896185882335,0.5615922095911964,1.130217086779459
2023-12-07 14:03:40.757200,11.155520606944089,1.5630409571982393,0.4469488930447919,1.8596715043523502
2023-12-07 14:03:40.758213,6.710123226110845,0.934049182719123,1.1532228840976884,6.345164562810551
2023-12-07 14:03:40.760230,-5.260912216452789,-0.9365895271929617,1.9017090719251135,7.39121701745557
2023-12-07 14:03:40.763245,-8.065585238824063,-1.8136228306177475,1.7253454774959043,4.004917372740841
2023-12-07 14:03:40.768693,-0.40726794299570723,-1.0127010953996698,0.6778000099405698,1.7164703687661675
2023-12-07 14:03:40.769699,5.352482144785839,-0.36298312067381194,0.14119543049784136,1.5883190134679621
2023-12-07 14:03:40.771794,4.099103984701225,0.18159878694940568,-0.13674896566504516,-0.5371613493905101
2023-12-07 14:03:40.774869,-2.2718204882918283,0.3926863035489375,-0.7126762119751464,-5.9652173183432575
2023-12-07 14:03:40.778357,-5.651036318583331,-0.23934182145839084,-0.21471500920831096,-5.627227540132511
2023-12-07 14:03:40.783858,-0.22039487661921847,0.20380142562850126,0.7500996598834438,0.7875798970975926
2023-12-07 14:03:40.786900,6.7766405934439335,1.5419416100224193,0.05686284247914079,0.3027685675884662
2023-12-07 14:03:40.790011,6.022315503544648,1.2574993466991107,-0.8397403361852599,-4.916093504622667
2023-12-07 14:03:40.797318,-1.0384656936518333,-0.11973180130954976,-0.3730211750207141,-5.573768331257083
2023-12-07 14:03:40.802723,-5.890923257482971,-0.9398237733248705,-0.3145257831040373,-4.761942595379341
2023-12-07 14:03:40.802723,-2.891695568800968,-0.7045416316336437,-0.696187273444304,-4.3991130309591595
2023-12-07 14:03:40.803753,3.9654953659134735,0.21303213835879772,0.09328802780743457,-1.7159909500640147
2023-12-07 14:03:40.807787,4.78585258200887,0.3143506721553086,0.8635962219882123,1.2403047193114811
2023-12-07 14:03:40.811911,-1.5332894034536404,-0.3272585016497111,0.3240906683208207,0.38456066867239297
2023-12-07 14:03:40.816622,-4.107084247286989,-0.16750241664917467,-0.2530455666721763,-2.2782012698464382
2023-12-07 14:03:40.818729,1.1581064221013588,0.5079085555829026,-0.18883298249622057,-1.8730570544474516
2023-12-07 14:03:40.822762,4.845891966445834,0.21085340686396742,-0.3333064865647019,0.11903371842090794
2023-12-07 14:03:40.825143,2.8045207879443663,-0.5061879326724671,-0.42952356970975486,1.330231150128056
2023-12-07 14:03:40.828309,-0.27251532506829806,-0.0876228589019481,-0.0005504500686937176,1.44679900151105
2023-12-07 14:03:40.831325,-2.96701932210838,0.36811458913820994,-0.2010857489707233,-1.6495363268295744
2023-12-07 14:03:40.839673,-3.180740423149526,0.11271490097111893,-1.019230597767909,-4.431400942862829
2023-12-07 14:03:40.839673,1.2668172326817089,0.4198842702487973,-0.873921196880825,-2.1212426198793217
2023-12-07 14:03:40.839673,3.7077662197415333,0.49667026628124467,-0.30254432235464584,0.4529181855232202
2023-12-07 14:03:40.843838,0.35316315118851793,-0.13570969479464626,-0.4162096292933409,-0.4339388975930707
2023-12-07 14:03:40.849910,-2.636915909742316,-0.14362269619013127,-0.31599330839297723,-0.8600194484330163
2023-12-07 14:03:40.853948,-2.318235011527599,-0.17222598217665028,-0.028603210140551515,0.4343501867661123
2023-12-07 14:03:40.855247,0.8612166562247365,-0.35457136290306346,-0.3058885084167197,1.2136671315711758
2023-12-07 14:03:40.859503,5.269647873995002,0.29794293040270525,-0.17176909868021698,1.6066100524627267
2023-12-07 14:03:40.864706,3.6023208295458025,0.4290237391934377,0.12189446021756294,0.9571564323319967
2023-12-07 14:03:40.867723,-3.132486282338582,-0.19905532768697706,-0.617370421889206,-1.3778283196961025
2023-12-07 14:03:40.869898,-4.446795477678302,-0.2154048778850486,-1.0597093889258526,-2.013139890631072
2023-12-07 14:03:40.871995,-0.10865765285287071,-0.16860920606713223,-0.4887907831125424,-0.15947334239323507
2023-12-07 14:03:40.887796,14.279990169287082,1.592937271131156,-0.23698992408956504,2.478071081184144
2023-12-07 14:03:40.887796,5.957574502605841,1.3725000182898592,-1.1419744321699443,-2.734200675360196
2023-12-07 14:03:40.890014,-20.528317323915644,-1.3926425899031838,-2.3090315467432894,-12.114668097405909
2023-12-07 14:03:40.901333,-21.013781631439144,-0.7147911519526732,-3.092287168600827,-15.89628719922583
2023-12-07 14:03:40.901333,2.9435065156551667,2.650836215209341,-2.617701205990546,-10.497572625142972
2023-12-07 14:03:40.901333,15.152476823922646,4.340413644507893,-2.27001790277161,-7.902747212357553
2023-12-07 14:03:40.906499,18.029828397937422,4.4840182661628685,-1.8458815176282803,-6.023832070935359
2023-12-07 14:03:40.912602,5.106534024029431,1.1058631890279274,-0.4464418930628017,0.18839568373052207
2023-12-07 14:03:40.914976,-9.602013298007892,-1.3814106287070085,-0.15096507130581516,0.6782818768158998
2023-12-07 14:03:40.919049,7.424908700906458,2.1413748258766985,-1.1869932310212519,-2.9699924369982975
2023-12-07 14:03:40.922486,17.76849387202557,3.5961864895929208,-2.08755600334175,-5.027232910921728
2023-12-07 14:03:40.926518,-0.0215160075606554,-0.37760348166899194,-1.3473414441296145,-3.3840447035429944
2023-12-07 14:03:40.940982,-11.816598150421605,-3.7027062805707542,0.9372407479802363,2.9107840668537386
2023-12-07 14:03:40.940982,-19.961864134942036,-4.560827663993517,0.5433652111732504,0.10398057915153489
2023-12-07 14:03:40.943000,-12.927119940584683,-2.4588300971573713,-1.244369506076362,-4.596422109800748
2023-12-07 14:03:40.946044,19.421826361364285,0.3067415883403093,1.0412371779269127,10.370412664991122
2023-12-07 14:03:40.951180,24.82434834435841,-0.011391468987804753,3.011453945492149,19.15174806713665
2023-12-07 14:03:40.955959,5.6450588592059425,-0.3059926293523575,1.2569882455149626,7.519732469303646
2023-12-07 14:03:40.958427,4.490957280809743,-0.08226436719289511,1.0252805198525115,6.870597158595177
2023-12-07 14:03:40.961480,6.666303402859098,-0.9935389037273106,1.3699204695772587,11.448436077212246
2023-12-07 14:03:40.963490,10.400787912454241,0.20778794561422745,-0.16363366905861718,6.1413633666725715
2023-12-07 14:03:40.967793,12.014609324658773,1.1593005884525693,-1.0208161888935652,1.4543830640704731
2023-12-07 14:03:40.971823,-14.240125731760143,-1.6697752044580514,-1.73314679845278,-6.987659397611804
2023-12-07 14:03:40.972831,-26.299796202041424,-3.3280445518850645,-1.0033906783629294,-7.742606403131943
2023-12-07 14:03:40.982319,1.1434659672768799,-0.8532455296090619,0.9124723301800984,2.5589746190661193
2023-12-07 14:03:40.983325,17.289455178519816,1.455374496125204,-0.12486055850427787,0.9839966912505762
2023-12-07 14:03:40.985342,12.049738665099396,0.5074611676785009,-0.660279049259526,0.7932346155596629
2023-12-07 14:03:40.988400,0.2854757384563321,-1.3283457727378107,-0.32558879496261156,2.4932167511501993
2023-12-07 14:03:40.993651,-20.930946925633528,-2.5957665650012007,-2.5916091858989283,-10.26580942030939
2023-12-07 14:03:41.003505,-23.060019682116508,-3.015086041016295,-2.97824814339192,-13.157891890028154
2023-12-07 14:03:41.004503,5.134255877240723,-0.655033213197135,-1.0074564757340563,0.2949212512682445
2023-12-07 14:03:41.005598,20.229668229504206,1.7088605400968824,-0.2883453612740261,7.988399762826091
2023-12-07 14:03:41.011645,1.9382686486341547,0.5455234500666923,-1.1810698539043736,1.7323721529493425
2023-12-07 14:03:41.013649,-17.74496420095735,-1.3435188629608892,-3.2316216854177915,-7.176740317913476
2023-12-07 14:03:41.016879,-9.797570172460324,-0.5735561726979032,-3.3316743167714944,-3.2267211336401647
2023-12-07 14:03:41.022241,11.14965261916435,1.2159612512626934,-1.2301988931546728,4.445511609587335
2023-12-07 14:03:41.039152,16.046013697517328,0.2756049440266969,0.3140005528971586,8.478428694243417
2023-12-07 14:03:41.039152,4.825591459160231,-1.8376057228157523,1.2967813514016318,11.095386402755341
2023-12-07 14:03:41.042163,-4.647641662151333,-3.500382403316027,3.3235366204479266,13.879191886021438
2023-12-07 14:03:41.047349,-1.5774328490712142,-5.683730450177023,6.483746399512688,24.741026268988115
2023-12-07 14:03:41.050475,10.605324777890171,-3.8300531296507234,5.236976749284182,23.74106551396383
2023-12-07 14:03:41.052840,17.695249750510254,-0.12459164019646643,1.1584221709197573,10.428260959410117
2023-12-07 14:03:41.057917,5.196764742859211,-2.4473227841714813,1.5576108706186147,12.92495100425362
2023-12-07 14:03:41.062207,-16.422852506403224,-4.62130845978318,1.9123507660996435,11.82520787073119
2023-12-07 14:03:41.065264,-12.676340570644266,-2.5147161786535746,2.2300377384106467,4.067096326773485
2023-12-07 14:03:41.067295,10.943893228246058,-1.4405417663413815,5.138883400853556,8.982743543174157
2023-12-07 14:03:41.071312,19.348062461522975,0.290924050330466,3.550158631270465,9.674763794353211
2023-12-07 14:03:41.075696,11.995974979714264,1.3522805033018257,0.4776984894938319,4.891353184484031
2023-12-07 14:03:41.083350,-2.455680791971094,-0.6643696411870275,0.0851281552252805,-0.4177456827518141
2023-12-07 14:03:41.084359,-15.834291016718208,-0.7532190012999415,-0.029948032385621843,-7.551876511056295
2023-12-07 14:03:41.086379,-11.933977703715598,-0.8115165441447645,2.091627088482345,-1.2054403872357686
2023-12-07 14:03:41.090421,-0.10317529207113334,-0.3099889466112339,1.5797599675819995,7.491874845330522
2023-12-07 14:03:41.095792,-4.272738723257603,2.510728864998951,-2.3607922296274855,-2.7218892821548555
2023-12-07 14:03:41.097877,-25.743226087384688,-1.513090830963393,-0.50890203418173,-17.434713242170492
2023-12-07 14:03:41.100973,-33.833142879241606,-4.265333536456023,2.9628174654628605,-20.74347638706961
2023-12-07 14:03:41.110512,-10.511794619399282,5.0784613754064,0.19871511408035808,-18.567241485500045
2023-12-07 14:03:41.110512,6.650012843021471,7.935549614051502,-2.866062303248352,-14.18041781875416
2023-12-07 14:03:41.111518,-6.545813420881944,1.0529876180090976,0.44328739412135976,-9.519384232637023
2023-12-07 14:03:41.116831,-17.753547661234993,2.3056632059536897,5.533942004663221,-10.486023321273821
2023-12-07 14:03:41.120872,-18.765465531776062,4.092135040193913,6.574783610648578,-13.702846135622249
2023-12-07 14:03:41.131183,-20.75339239021791,0.7849414358046548,5.422456386746755,-17.167383937724995
2023-12-07 14:03:41.131183,-2.0431372545672564,5.627549715484893,3.455291138291411,-16.260041656518283
2023-12-07 14:03:41.131183,15.589525344150239,10.738164311165658,2.682088159703562,-8.472206707902176
2023-12-07 14:03:41.135303,-8.171513084177567,6.577329993807054,6.420800462792282,-6.980409523284217
2023-12-07 14:03:41.142718,-29.799138528930513,3.736388364587278,9.611901783758299,-10.628262677064088
2023-12-07 14:03:41.145741,-20.31851326655152,3.9645873237484004,7.16989769053509,-13.132968059470299
2023-12-07 14:03:41.148896,-11.65447911414007,4.684960729032566,1.8616187102637567,-16.295128451565944
2023-12-07 14:03:41.153400,-7.352488450579137,5.988165366483541,0.33444714934950365,-14.022483321016187
2023-12-07 14:03:41.157494,-12.562015953847535,2.753791277065805,6.572585848061812,-8.908104569260546
2023-12-07 14:03:41.158502,-36.75642834186222,-2.699716555572977,12.04077965968948,-8.25319688449991
2023-12-07 14:03:41.165966,-33.54361834752075,-3.0972424219771755,10.844641884112912,-10.569875710183014
2023-12-07 14:03:41.167993,7.667293962701746,3.2491134895849787,10.267078176098662,-9.490870708900133
2023-12-07 14:03:41.171214,17.256251198444275,10.309017239866906,8.863324955747004,-4.426544345870917
2023-12-07 14:03:41.175273,-14.900852539576475,9.275193781089564,3.930710755643836,-7.5473351517058065
2023-12-07 14:03:41.179308,-36.96204919558117,1.664311381971888,2.812019954770486,-19.915165912953313
2023-12-07 14:03:41.181322,-38.800007144719764,-3.770669769926521,3.5378220812424104,-30.686515835503247
2023-12-07 14:03:41.187783,-24.355252577250447,-0.9590594870171001,1.765514806551713,-31.15804659678521
2023-12-07 14:03:41.190898,-6.218196120271641,3.6845778902568034,1.0440075998022351,-18.86573221944337
2023-12-07 14:03:41.194955,-12.718699905239957,-1.5184871588155058,4.147216946344375,-9.214944919490032
2023-12-07 14:03:41.197984,-33.85750328779535,-6.18169041797522,9.0202973027055,-14.484867370849614
2023-12-07 14:03:41.202223,-41.43168131039456,1.0002180968367282,7.056402073094957,-25.806054251468453
2023-12-07 14:03:41.211328,-25.686324619168836,6.302313845359621,1.2233724947971836,-27.77452822967415
2023-12-07 14:03:41.212327,-1.511579933964068,5.224466807108809,1.8022108756514013,-14.545477238047809
2023-12-07 14:03:41.212327,4.388827741444253,6.670843829332044,1.5454928810932675,-0.8575402041771428
2023-12-07 14:03:41.225314,-10.478114900626734,5.183671495555119,-0.4814674565220242,-4.45416502866495
2023-12-07 14:03:41.225314,-28.67357545072912,-1.7907246865973392,2.1821393091834116,-18.296833376544555
2023-12-07 14:03:41.228719,-21.74477981084995,-3.420805725560899,2.2150576649463436,-18.295223861884782
2023-12-07 14:03:41.233177,8.180733866959585,0.6764860505320143,2.6817936913981,-5.076835407201545
2023-12-07 14:03:41.237198,8.29936070396797,0.7888025401605528,7.2871676922663555,-4.454758700731639
2023-12-07 14:03:41.240265,-18.290136370512133,-1.2066611001734016,4.857639055711301,-9.116570616020763
2023-12-07 14:03:41.243405,-19.170374301139148,1.9519789509001835,-0.8310490188280908,-0.49548287412615544
2023-12-07 14:03:41.246480,0.5916276760042962,3.1612640784947343,-1.4752912498443507,6.163152802486758
2023-12-07 14:03:41.250697,15.13711554807134,-0.6134743992548473,-1.517744578781924,9.96455458300323
2023-12-07 14:03:41.259133,11.00374840875844,-0.08654347155894294,-2.625224274464732,11.654775603489098
2023-12-07 14:03:41.260134,-19.10606069117309,0.3389187707515688,-3.1319591922117542,-7.508441232225814
2023-12-07 14:03:41.262139,-36.88906665325512,-1.951226366848811,-0.7168529311364599,-21.854493650825216
2023-12-07 14:03:41.274280,-12.12513314472171,-1.5261463775495578,3.570673491183442,-4.507623272590246
2023-12-07 14:03:41.274280,16.75433080858272,-5.151974013753503,4.581549579817069,12.21135176218935
2023-12-07 14:03:41.276324,11.328247621827408,-7.907464963953191,1.9453838462326087,3.2622913261523574
2023-12-07 14:03:41.280469,-17.419896943211718,-1.7765464889397597,-2.4630375614401205,-13.570954909027522
2023-12-07 14:03:41.285733,-28.109777862339115,3.424015638607743,-6.213446729121794,-11.965010946140431
2023-12-07 14:03:41.291818,2.7021078593545718,5.150121274030118,-8.314330790802886,5.597573598182013
2023-12-07 14:03:41.293980,35.08784454280555,1.654907695734929,-6.536952196843689,16.856179116871473
2023-12-07 14:03:41.297167,25.011825264866367,-5.103532937104044,2.0201968832368338,16.82253544114776
2023-12-07 14:03:41.301203,-5.513917468959479,-4.603731263921543,6.411207259903473,6.6310838485405705
2023-12-07 14:03:41.304250,-15.040547212902876,-2.9335410445279146,1.794786925485681,-3.293912436208117
2023-12-07 14:03:41.308806,-0.9344552158475953,-1.03227344054103,-0.23538840360582258,3.0267862993939847
2023-12-07 14:03:41.318983,15.775470181428272,5.140391569141776,-1.5232672492012886,9.81462721482413
2023-12-07 14:03:41.325197,23.583102571751503,7.38428937270929,-6.046822889644506,9.60443078045329
2023-12-07 14:03:41.326227,8.481001910341227,5.27248093291571,-4.982047423961133,12.919644288773661
2023-12-07 14:03:41.326227,-19.0452344266375,-2.021137275800328,0.6740292827183298,9.418406954700869
2023-12-07 14:03:41.328348,-7.657212651691466,-8.571042299308653,3.0885149430958276,6.988512871629225
2023-12-07 14:03:41.333795,21.98273130883178,-5.35450019932204,0.8543873694803495,13.334755414749187
2023-12-07 14:03:41.339977,13.88943435894705,-3.0669937748595446,-5.500090206428725,1.6052691507883274
2023-12-07 14:03:41.345376,-1.4908884266117775,-0.386785816631187,-10.009657389091167,-15.982975097940848
2023-12-07 14:03:41.350592,-0.9034395337221472,6.893484087964658,-8.199501046654014,-5.0789370843360695
2023-12-07 14:03:41.354614,4.702005773063392,7.81531236177496,-9.081982217610548,11.333308587424815
2023-12-07 14:03:41.357871,22.40969404816329,5.733951217137173,-13.983540352784244,11.287323922400168
2023-12-07 14:03:41.362341,32.48728352238145,6.53577868917804,-11.594715769422505,13.73021657286387
2023-12-07 14:03:41.366384,14.037178435572724,6.95109677831111,-4.3871680598960205,10.093229935785997
2023-12-07 14:03:41.374559,-12.443601378524908,3.3401452430930747,1.0097111183954863,-8.50649887454484
2023-12-07 14:03:41.375564,-8.76798406240026,-3.843572901044877,5.590726873749108,-5.427834785080052
2023-12-07 14:03:41.376584,22.567631015649365,-4.77864079304085,4.6634016223698405,17.54286080754338
2023-12-07 14:03:41.381849,27.74029643706312,1.8895863457299367,1.0688670228269486,21.927738724757578
2023-12-07 14:03:41.387000,4.251404586787164,7.964929745023907,0.34225906697261443,10.716451051763407
2023-12-07 14:03:41.389031,-6.896451846900356,10.371118594394451,-8.16786904449152,5.70616732987228
2023-12-07 14:03:41.396558,-5.747003546415913,6.716902042432925,-18.379855247214508,16.469710649222435
2023-12-07 14:03:41.402159,5.0804551016041195,0.3844074299730905,-12.991176866131065,24.357319882817038
2023-12-07 14:03:41.406229,24.28211146712304,-1.490296518184802,-5.6064583006245,12.526105692553395
2023-12-07 14:03:41.407250,23.652901960051903,0.8971109115141934,-8.118827875969583,9.632884211509488
2023-12-07 14:03:41.412318,1.2284138916511553,5.870243019433342,-10.695977183961405,13.21121144879867
2023-12-07 14:03:41.419188,-12.98660803313851,6.838428054262079,-6.757404652361572,-6.467110722449536
2023-12-07 14:03:41.424214,1.6219540506455286,-2.2695966917770933,0.2690055286429923,-11.224743367378082
2023-12-07 14:03:41.434297,23.423484236593342,-6.401753243946773,2.274105455488765,8.291278325125289
2023-12-07 14:03:41.435305,17.567238565519137,0.9585391517197793,-2.8090415764711754,9.604882324896256
2023-12-07 14:03:41.437339,-5.650573794549615,3.2072503584301097,-3.7608532023818846,0.3447062390768595
2023-12-07 14:03:41.442842,-17.22507290913506,1.843810694598834,-0.7701329051734255,-4.694795243853809
2023-12-07 14:03:41.446887,-8.156618186749183,5.8169113059231385,-4.5741457199869515,-4.763846151563521
2023-12-07 14:03:41.451019,17.146812596089347,8.889620416217202,-9.496519312580565,11.357718928107763
2023-12-07 14:03:41.456389,20.87302881782334,4.014400057509119,-2.579207824722958,20.316808904406955
2023-12-07 14:03:41.463727,-13.6223806164619,-6.526265324837065,7.701671973588061,3.237773073639024
2023-12-07 14:03:41.469745,-27.811609094174745,-6.026925951485815,3.582982203844967,-3.391766998748542
2023-12-07 14:03:41.479342,3.1615004933959385,2.7540638623885805,-2.1470348575812594,17.222573877280904
2023-12-07 14:03:41.481352,21.399490914765607,-3.2985427799033005,6.05071038117578,21.79945697284536
2023-12-07 14:03:41.494937,6.853688474967338,-14.905607918223764,11.444405314340123,5.26560276546395
2023-12-07 14:03:41.495949,2.474290418146441,-15.038961794932465,7.6439149282829515,13.50194274012422
2023-12-07 14:03:41.498441,1.4915659147935147,-7.924208879550638,2.6733019649800753,17.259238682850295
2023-12-07 14:03:41.502534,-9.71951574886323,1.854940888476241,-5.3541668153991955,-7.893368978026192
2023-12-07 14:03:41.505802,14.970045149088516,9.21748432730107,-12.881411439040248,2.237768679789743
2023-12-07 14:03:41.509951,42.99662414852991,8.099111113602152,-12.173966527802865,26.824805755396053
2023-12-07 14:03:41.516072,11.208236037548465,-4.95743883519738,0.28163050171289566,12.562284421702968
2023-12-07 14:03:41.526209,-20.975521624870698,-15.356953674422684,11.878966871363986,4.910614614452132
2023-12-07 14:03:41.529355,-14.973754810826884,-6.193245741384824,3.6968910600933826,3.68061136966651
2023-12-07 14:03:41.532434,-5.146073882209889,3.431310171389403,-10.853492998646287,-12.681602233801867
2023-12-07 14:03:41.536457,6.760527770752826,2.9978677064389982,-13.26769799279963,-7.043562522851269
2023-12-07 14:03:41.541679,8.72433372796592,5.122804440039721,-11.810750672430355,9.163167147331631
2023-12-07 14:03:41.551588,-2.3628956127200635,5.085980688890872,-10.664929881607659,16.481982210425265
2023-12-07 14:03:41.552595,5.76783629928981,0.19766785737279874,-4.369871417170588,26.690285436775643
2023-12-07 14:03:41.553600,19.721324442829737,-4.109385695517133,3.3439098227826705,25.034413092825936
2023-12-07 14:03:41.568842,17.71035980455304,-7.138139467315683,7.060002074606126,13.839281781668651
2023-12-07 14:03:41.568842,2.7411146431823656,-8.746793198881667,8.717646894811612,3.670024607885761
2023-12-07 14:03:41.569850,-17.71981689288956,-5.984307052122508,7.832180669732164,-1.87506434110231
2023-12-07 14:03:41.576408,-10.581964555228804,5.205777431685314,2.1478584093022013,12.961742609404162
2023-12-07 14:03:41.582590,15.322255025014686,8.153366097536662,-0.5117775263660695,22.738524625899927
2023-12-07 14:03:41.588232,12.184468423007196,-6.736264973173259,6.3991853196011945,9.908485082125477
2023-12-07 14:03:41.595221,-6.311624751346421,-16.073816414902083,12.843919987273825,2.1471271025730227
2023-12-07 14:03:41.598418,-12.427180795538906,-9.447269013247135,5.31886882626635,-3.1438840467340117
2023-12-07 14:03:41.602708,-8.382951558621658,2.4456073226947335,-7.538400331804765,-7.0797983106108875
2023-12-07 14:03:41.617213,5.178787928399805,4.843748755755268,-6.966853078356543,2.7472199932799435
2023-12-07 14:03:41.618222,17.155500767740584,-4.425651859949913,-0.32506059196174464,7.066324878123918
2023-12-07 14:03:41.620290,12.040714501292916,-7.053783294985822,-0.9606430250134601,-0.5708584806547932
2023-12-07 14:03:41.625718,-5.120920997228181,-1.5033446651379585,-2.505905867350316,-4.677086653303437
2023-12-07 14:03:41.632061,-9.770128418381772,3.5303958157292135,-3.492653398915353,1.0391008880702306
2023-12-07 14:03:41.639043,7.019495062847274,4.772400128129936,-4.519130967731025,10.391329972150693
2023-12-07 14:03:41.642710,17.786265262571664,-3.415634792290924,-0.7789388882065088,6.7443756411829385
2023-12-07 14:03:41.649179,9.592009329701835,-6.67046656606752,1.5902386877052903,-4.773050185171183
2023-12-07 14:03:41.654447,0.2976874558588811,1.526427574889529,0.3612065581262689,-4.281910236618913
2023-12-07 14:03:41.659574,-3.74619674232455,1.0866374326976265,-0.755458377498537,-0.4630681759973624
2023-12-07 14:03:41.663925,-1.3767722937793294,-4.687226663756951,-3.5887970691364344,-2.495826785396168
2023-12-07 14:03:41.668007,12.605377713752349,-0.1271906449409234,-5.573915747357917,0.028939181714412728
2023-12-07 14:03:41.678899,20.77051315808384,6.193342633957507,-7.14637009393445,4.796355907599024
2023-12-07 14:03:41.680089,7.1898809160544,5.654763154264681,-6.773037902394531,4.42515300541023
2023-12-07 14:03:41.681112,-9.803082382373825,2.5061093253342492,0.12984210485351919,-3.081333689180408
2023-12-07 14:03:41.685361,-9.749055597757039,-3.3362115664342196,2.644665253627348,-12.211496653743325
2023-12-07 14:03:41.693484,6.216077967972874,-9.335403351699322,1.822075908009353,-3.675529872406887
2023-12-07 14:03:41.706505,16.32115452693769,-7.682329460976547,7.252046358801232,5.916974222788288
2023-12-07 14:03:41.706505,-0.6575388927689879,-0.5448666717487303,5.384383087572154,-9.933635133340491
2023-12-07 14:03:41.707515,-19.25934620613511,6.5709130554354065,-7.3177112877516794,-19.433467135733146
2023-12-07 14:03:41.714259,-3.549399733062937,10.18837957500608,-14.544624072548347,-8.169142180978326
2023-12-07 14:03:41.721678,21.75446110326338,5.284561593084373,-8.250554624456177,1.4866179327464732
2023-12-07 14:03:41.727012,16.59742737618371,-5.451330498921165,5.03452575785811,8.333292743954912
2023-12-07 14:03:41.731245,-8.707483147814385,-8.860337277240511,9.542531285056418,2.5724756568589937
2023-12-07 14:03:41.744351,-20.861447493836366,-0.6380244496807931,1.529117191370915,-13.785069219030065
2023-12-07 14:03:41.745377,-7.618595357964201,5.484748684634918,-7.75199699505009,-11.90417702085632
2023-12-07 14:03:41.748542,12.280700071972593,3.0038878093458856,-10.333316627547505,0.6703965758001699
2023-12-07 14:03:41.753626,12.567926215601439,-2.3557503968923195,-4.572684268274775,2.641138135995383
2023-12-07 14:03:41.757694,-1.749736107881245,-7.242727418761761,2.402267363921103,-3.293563157976951
2023-12-07 14:03:41.763940,-9.778645976748193,-7.511734284227915,0.4162885217699666,-11.492592243142203
2023-12-07 14:03:41.769820,-7.173708318103466,-5.262940969759397,-4.393650369880883,-13.702268058248011
2023-12-07 14:03:41.776152,2.7241570763978773,-5.741135215378076,-1.2777543878506326,-6.977740098365656
2023-12-07 14:03:41.780322,8.243379389598497,-6.739422224359141,0.8546340412143222,-4.207012152230198
2023-12-07 14:03:41.785368,-0.5381572782036268,-5.206795506259623,-3.2111012611928764,-9.390465239196583
2023-12-07 14:03:41.788370,-9.350065387875528,0.0344141859162961,-4.734427701942218,-9.489073125971672
2023-12-07 14:03:41.794951,-4.195768293013416,2.666894551139513,-5.7303797780570624,-0.5563546037239242
2023-12-07 14:03:41.800236,6.438260328334225,-2.1541014890820755,-6.474845722882832,4.790349002005621
2023-12-07 14:03:41.803237,9.023256362155756,-6.421147456352278,-3.2166021751195966,3.059640662568593
2023-12-07 14:03:41.810042,3.1153865675521226,-5.1584564044721475,-1.5983576725390962,0.9287074910738365
2023-12-07 14:03:41.814171,-4.318598839087649,-1.5129233356477965,-1.7220149044719704,-3.794225591767837
2023-12-07 14:03:41.819789,-5.6312379614717685,1.2861920347635478,-2.936597887092847,-5.9295743689593525
2023-12-07 14:03:41.826188,6.461798145859644,2.949804368528919,-6.792353311081697,5.324547301560518
2023-12-07 14:03:41.831324,18.00053292089447,2.752737689600668,-5.709085444922262,16.854632799853345
2023-12-07 14:03:41.845136,8.792576638390857,-1.4460389956991262,2.088147474830167,11.400500964291457
2023-12-07 14:03:41.845136,-8.246586106716556,-4.877376888508812,7.055079586856568,-4.999505860062175
2023-12-07 14:03:41.848289,-10.583920327818106,-2.4509524816030597,4.779273104763808,-12.934153109829671
2023-12-07 14:03:41.853406,1.415421391053117,2.0139787448411255,-0.5145914110060796,-3.8574089754485974
2023-12-07 14:03:41.859016,10.508732647234918,3.3049613535104263,-3.328159124151225,4.210493339641885
2023-12-07 14:03:41.873290,6.479795008771972,1.1564495997328943,-0.7062561362165938,-0.36801368190891487
2023-12-07 14:03:41.873290,-0.9459583373530063,-1.5841720545177915,3.4289679073503563,-3.945959114328386
2023-12-07 14:03:41.874304,-1.4547786223158226,-1.855032942419735,3.0970101108788963,-1.3187774176316707
2023-12-07 14:03:41.877055,5.03006661982964,0.7298929044351885,0.9209700795126563,2.829139015624862
2023-12-07 14:03:41.886159,9.127352093637437,0.7130587650316005,0.7008356695153042,3.820391570922712
2023-12-07 14:03:41.892475,3.8859899093786736,-1.742939615683342,2.662419595901537,-0.587956303976501
2023-12-07 14:03:41.896568,-1.3889689645220078,-0.012272731223215759,4.821718214220174,-3.0770983231721623
2023-12-07 14:03:41.901025,-2.1701395481021666,1.5017477382212097,1.9662393795184554,-4.4011353503898505
2023-12-07 14:03:41.907230,0.8773170442433127,-0.21432482066327666,-2.2162714173763023,-4.252046516213528
2023-12-07 14:03:41.913308,7.946734741401129,-0.23676406689717844,-1.0850780178193231,3.5596095797818044
2023-12-07 14:03:41.916444,7.4787341175735245,-0.5881238340678017,1.6036023156045176,7.900973272950072
2023-12-07 14:03:41.921796,-0.7915428665007086,-2.376824128337523,3.039078508291123,3.5147600976915707
2023-12-07 14:03:41.935085,-4.287102589253846,-2.6782324479563306,2.3004077877857134,-1.9359567537353757
2023-12-07 14:03:41.935085,-1.3963875325904629,-0.6742944741566088,-0.5891226489251904,-5.297802619855441
2023-12-07 14:03:41.937129,3.747586064094794,2.522962842433685,-1.3892009480556862,-2.981360139665818
2023-12-07 14:03:41.942393,5.4735586884624725,3.240014766121466,-1.2799728563160473,1.1831277405663412
2023-12-07 14:03:41.949739,2.951531140895192,1.8206616662184087,-1.528865027325405,2.2586832035650466
2023-12-07 14:03:41.956082,0.8366400112603746,0.839609380771712,-0.10527833708241083,1.748697033221934
2023-12-07 14:03:41.960207,0.4635911218798807,-0.45452826891079273,0.95306692474234,-0.8550521683728934
2023-12-07 14:03:41.964376,3.137682571245231,-1.3129455614863097,1.998079146739189,-1.1651566991160562
2023-12-07 14:03:41.969524,5.419253777990302,-1.3320473289628063,3.2645546776512075,2.3494222834894503
2023-12-07 14:03:41.983564,2.3030253880581797,-1.385736058202972,2.202590318414316,2.280898245775984
2023-12-07 14:03:41.984568,-1.4460063284049465,-0.1342607155087391,0.5386715502031657,-1.6006711087503547
2023-12-07 14:03:41.985572,-0.3190547155428908,2.1792360099404506,-0.48470310096992225,-1.9957372176672297
2023-12-07 14:03:42.000002,3.691407804003005,2.4669199182761474,-0.6677349001871747,1.9979793414229865
2023-12-07 14:03:42.000002,4.14451677883654,0.30850890497748285,0.7730038953414907,2.688812527659542
2023-12-07 14:03:42.002327,-0.45917310681079126,-1.0173814441462605,1.4187903410504075,-1.0032881004208336
2023-12-07 14:03:42.005349,-3.49113893024513,-0.2597924358136616,0.4261327992797187,-2.9666436505100324
2023-12-07 14:03:42.011412,-1.9245736716547237,0.7531504171578226,0.02573785237804539,-3.3325139631745584
2023-12-07 14:03:42.020164,0.7434014611510337,0.8897905528923673,0.8287996373829157,-2.6446677000370844
2023-12-07 14:03:42.025357,1.0978650437675448,0.199060061565066,1.6163316925009998,-0.5601420067184317
2023-12-07 14:03:42.029812,-0.9865688956294516,-0.2382371469156719,1.5520821144689156,-0.27552262584648507
2023-12-07 14:03:42.033866,-2.8419678024247474,0.24781860027835978,0.9610196053287209,-1.228056320148327
2023-12-07 14:03:42.038899,-2.8498863068801024,1.1502799561542092,-0.05716161109035817,-1.5937726072245706
2023-12-07 14:03:42.042076,-0.8469817672223486,2.127522032112616,-0.9739620266875382,-1.064409807226645
2023-12-07 14:03:42.047229,1.0033739889352686,1.545224625891954,-0.6415414696230539,0.6497297021987966
2023-12-07 14:03:42.060235,-0.41921075417496767,-0.28843803830079207,0.5377966922066704,0.3751800984901658
2023-12-07 14:03:42.061265,-2.9849824837716032,-0.28085830202005396,1.3848899993476929,-1.910644630776825
2023-12-07 14:03:42.061265,-2.869652522445109,0.20181471923733477,1.6486616316662717,-1.3762152244177905
2023-12-07 14:03:42.064294,-0.22583130139508026,-0.5318159327637267,1.7348157916840936,1.4633824921094702
2023-12-07 14:03:42.073243,11.34769623144651,-1.9076334238213648,8.86753715969887,17.747878776539757
2023-12-07 14:03:42.079785,10.639907620862433,6.436234616014088,2.904843694589943,16.509542403699765
2023-12-07 14:03:42.083809,10.473807889032141,10.8704712341128,4.8983600052231795,18.016156099599584
2023-12-07 14:03:42.091069,4.367941861708626,3.829897905036796,12.074963731878498,8.94821591470892
2023-12-07 14:03:42.096453,-3.5840420709903125,-9.186669104497415,14.050903731042139,-4.354572427212524
2023-12-07 14:03:42.100477,4.544130120167303,-7.9593941931275465,14.969332228908849,7.02180837392356
2023-12-07 14:03:42.105724,10.956904776979627,2.800771153225007,10.173512107320084,16.575719060353624
2023-12-07 14:03:42.118664,0.9224598543227188,10.720159572623228,-5.4718426791799235,1.9494798812087069
2023-12-07 14:03:42.118664,0.28324419989127547,15.099365764149708,-11.4520305629005,1.3204490457172482
2023-12-07 14:03:42.120885,7.748420978638546,8.343693759899406,0.40624781986571434,11.94685109408927
2023-12-07 14:03:42.124327,2.8153618107446525,-2.440632915018745,6.641344429368152,3.9727995571209145
2023-12-07 14:03:42.130453,-5.5840949133498965,-6.446912100533963,-0.14969978814989926,-8.30409668788583
2023-12-07 14:03:42.134865,-8.440213185712537,-7.435067113621417,-2.6876889099133376,-11.358229922578566
2023-12-07 14:03:42.142055,-8.187791860722228,-4.743082860434282,0.4167771578238397,-10.20787046303347
2023-12-07 14:03:42.145070,-5.682870503820135,-1.5399397077208021,-1.098224175167036,-8.890733037224427
2023-12-07 14:03:42.149293,-1.4011725758979867,-0.43605354834170995,-4.7496624825064755,-4.689621130653004
2023-12-07 14:03:42.156622,3.562024054382178,3.8930313354592525,-5.534427004237249,4.858335196345029
2023-12-07 14:03:42.164130,3.0117220269561753,6.8442330972463425,-3.094113820837152,6.250234963248427
2023-12-07 14:03:42.168236,-3.6382489501816337,1.831608048405889,3.0318844062605104,-2.72376690573892
2023-12-07 14:03:42.172851,-5.713341186547193,-5.247414916795672,7.348690265027422,-6.261782100071974
2023-12-07 14:03:42.192260,-0.8164495026666729,-5.137519038693005,2.555300670032701,-3.119928742665011
2023-12-07 14:03:42.192260,1.8902719081749202,1.2254896593832463,-6.035623639947453,-1.1744819143015763
2023-12-07 14:03:42.193312,0.2802802338937189,8.580396319831578,-9.047234669961803,-0.7341704566949353
2023-12-07 14:03:42.197730,1.9080248493287126,11.886194060017209,-7.434274687754182,4.866073660100041
2023-12-07 14:03:42.205250,5.089818692985203,2.9121407848542096,-3.2675233059813658,10.056270163633542
2023-12-07 14:03:42.212597,4.03538056675228,-6.667675510035976,2.361003855219816,4.243712094377937
2023-12-07 14:03:42.217856,4.6220968394375594,-0.5990450875855078,1.2991081332803394,2.0269749259845398
2023-12-07 14:03:42.224924,4.361116146691952,4.2010148077622596,-4.765053231610438,4.71387766575243
2023-12-07 14:03:42.231309,-1.9365406589809213,-3.343621686296669,-1.624994299609645,-0.11477804294565505
2023-12-07 14:03:42.237381,-2.613751321954427,-11.974682248041605,9.244981128077956,1.7211883728396615
2023-12-07 14:03:42.241590,0.5343260317586118,-14.343913546742854,10.37296780582152,2.421232582739011
2023-12-07 14:03:42.246822,2.6599768311614675,-0.5690402785210433,-4.4770061193835575,-2.951423439747055
2023-12-07 14:03:42.260359,11.856344761406175,17.602009212083257,-15.542007801208664,12.023635235982754
2023-12-07 14:03:42.268169,8.716600597663422,12.233090971423058,-5.386018522550806,16.405835058819743
2023-12-07 14:03:42.269253,-12.638804156324264,-3.476494858959478,7.221517479978085,-12.28841858174143
2023-12-07 14:03:42.270260,-15.286696754203605,-5.710457677526216,3.4933608551819213,-22.184897393769383
2023-12-07 14:03:42.274448,-0.2999712790389235,-1.2127724576305898,-3.4412051605495013,-6.344792807439277
2023-12-07 14:03:42.281262,1.202739463317327,0.13111996095646858,-1.73322733006989,-0.23914845162735035
2023-12-07 14:03:42.287332,-7.006538956865851,-3.671551165315829,1.9086487796403,-5.399933483679243
2023-12-07 14:03:42.293521,-7.8342033648428275,-6.085011531105214,0.7281145760549074,-8.066302495734954
2023-12-07 14:03:42.297801,-1.2541863478833062,-1.0263385536318361,0.18805734363793022,-1.8944355727357873
2023-12-07 14:03:42.303002,4.1554917767200585,1.9299771983110918,2.1620153812029956,3.6270240759974888
2023-12-07 14:03:42.313045,3.7832483433949973,0.8476448774314419,-2.580406958402024,4.251944632599122
2023-12-07 14:03:42.315602,-0.8204747616198564,1.2034199215558197,-7.17856338448284,10.125425549793157
2023-12-07 14:03:42.330549,-3.572507269132814,-1.2681843144765415,0.9036384024378126,14.389584018190716
2023-12-07 14:03:42.330549,-1.8300178275680004,-2.42384157844987,8.91574644075967,6.274787237322528
2023-12-07 14:03:42.332616,-1.8472545084232375,2.1476999964829,3.8452330029443997,-4.593793759581494
2023-12-07 14:03:42.337693,-5.611805837542487,5.523033091684869,-4.874584765592777,-8.070836016750327
2023-12-07 14:03:42.344766,-12.776603756739485,4.076025945085232,-7.413905276096488,-12.28189466780245
2023-12-07 14:03:42.349879,-23.28903137950931,-2.4195670230526347,-6.187133028520498,-23.738322416401125
2023-12-07 14:03:42.356506,-23.71784607588903,-6.501459115389558,-3.8493337180384635,-26.90067787396576
2023-12-07 14:03:42.361534,-12.284138123409653,-3.5991012646199647,-2.891445256307485,-15.290532790012906
2023-12-07 14:03:42.371021,-8.430286355970301,-2.2649864906565327,-4.7414815931122885,-3.709359968244349
2023-12-07 14:03:42.376551,-13.515577618628456,-2.842251690162408,0.2573819671599294,3.4596891690913414
2023-12-07 14:03:42.381777,-16.680120438919147,0.3178801882860262,6.108176820363465,5.724041704644921
2023-12-07 14:03:42.390146,-10.492790111250661,7.920246471172898,-5.882769678368028,7.8456268472943576
2023-12-07 14:03:42.400679,4.27656007192878,11.04562780894626,-16.027681372153125,17.487694469634604
2023-12-07 14:03:42.401827,0.9616379775303697,0.7583114637060134,-5.722433769830714,12.190195754438053
2023-12-07 14:03:42.403308,-21.857719947679268,-8.039213063533925,3.756411956014137,-5.658964014667336
2023-12-07 14:03:42.422108,-32.82854404514462,-5.898483986946768,4.171817861767799,-6.3167452471593615
2023-12-07 14:03:42.422108,-32.10861792241159,-0.5666497800210908,-2.549162642877797,-6.870754147334568
2023-12-07 14:03:42.422108,-21.361828382827866,8.916796404340312,-15.593467350055752,-3.9868992141752413
2023-12-07 14:03:42.426226,-6.659257899733407,13.603609253464457,-13.969300683559615,21.436791608390923
2023-12-07 14:03:42.433740,-21.5229976758221,4.931539328728712,0.05952071122960231,24.738709459693155
2023-12-07 14:03:42.440799,-52.51734742599032,-3.1049492468385327,0.7732687184588775,-5.35589019329849
2023-12-07 14:03:42.446857,-58.31343624959891,-2.991251591761595,-6.5891259065966095,-22.178957379636287
2023-12-07 14:03:42.455809,-37.58487196416094,-1.8804831605787893,-5.7133001294211105,-13.885235615779385
2023-12-07 14:03:42.462056,-13.982673000041682,-3.485525533382431,-1.052119056961135,1.8399039745030836
2023-12-07 14:03:42.466556,-9.831103045478454,-1.0427375382577029,-0.3710940771698542,9.571381507580936
2023-12-07 14:03:42.469555,-16.091243661396387,5.574805887467725,-1.2719298316125585,6.136322097126106
2023-12-07 14:03:42.476647,-10.778792873964392,5.333416082864962,-2.8382918390769345,-2.3390336991253666
2023-12-07 14:03:42.487119,2.122278254182673,1.2940567735586452,-5.046263635600444,-4.326709848076063
2023-12-07 14:03:42.492120,11.132166418681582,-0.18710924019034078,-2.118098138577597,8.26973474364818
2023-12-07 14:03:42.498827,5.733482767273455,-0.9927677154651895,2.228749571701968,15.484132105066964
2023-12-07 14:03:42.505240,-10.7340543166544,-1.5470510241000517,4.0882383183295055,5.005087081458072
2023-12-07 14:03:42.510548,-11.155501582122815,-3.0176863023581353,9.393851904135024,-2.389764448597027
2023-12-07 14:03:42.513566,9.450846602479347,-0.7976176566637314,11.22697106183157,1.623843739463765
2023-12-07 14:03:42.516634,23.176167470485808,2.9261835082427834,4.408442940333442,5.061167239361275
2023-12-07 14:03:42.522767,16.376553938589876,-0.25687715053481575,-0.3342751325134284,2.967913542457131
2023-12-07 14:03:42.529324,0.375487949182014,-3.838617977924812,-1.4661810644925684,-1.6740810382410316
2023-12-07 14:03:42.549465,-8.67659874908142,-2.840779400788603,-1.366039623286037,-3.9087941441736733
2023-12-07 14:03:42.549465,1.5697056298845538,-0.6542229787519844,3.0471185896707573,2.8216365338565383
2023-12-07 14:03:42.550515,17.72388392955115,-3.4694092536684433,5.826341609220858,8.23258532246936
2023-12-07 14:03:42.554535,14.16407332902441,-6.718552459245703,1.441719870334625,-2.0696138577063854
2023-12-07 14:03:42.560700,0.2581527089509125,2.5164464484098055,-3.848260904749556,-11.52850173407793
2023-12-07 14:03:42.580313,-3.5931927845644567,7.357723738939864,-5.5074635211712915,-11.01248927472983
2023-12-07 14:03:42.581765,7.21427377952534,-1.9648149445998586,-5.003279847603624,-11.274441820057726
2023-12-07 14:03:42.582772,25.56287563920219,-3.340585422446664,-2.339824980976113,-5.346305865526953
2023-12-07 14:03:42.588895,27.65293644002714,2.9853048831544915,-0.5660556152993813,7.926384346029905
2023-12-07 14:03:42.596026,12.425219277711971,6.8920691287401645,-2.7633873760463357,17.311984921922864
2023-12-07 14:03:42.605410,3.0060401929692326,6.7298795009017045,1.332229756351615,15.045432775662269
2023-12-07 14:03:42.609473,5.767830619245633,-2.6289152370753848,12.179931550016628,-1.53700177895123
2023-12-07 14:03:42.623779,16.961355577059436,-10.609004794209541,10.250465736776215,-13.606475179404088
2023-12-07 14:03:42.624989,16.54276445576799,-6.704140584714125,-0.9445961077780706,-11.128246061546225
2023-12-07 14:03:42.624989,-4.911691615792684,1.6536581610480472,-5.897980951838184,-6.005422845574033
2023-12-07 14:03:42.628015,-14.038584422651372,7.888743685636033,-7.136895880134049,-3.21121533766746
2023-12-07 14:03:42.634299,0.021921091261995217,7.914946014412886,-2.678873066577768,-4.569441308636521
2023-12-07 14:03:42.644927,14.050073323683808,1.7585978747847586,2.4157267612400704,1.5152705392613717
2023-12-07 14:03:42.654347,18.990283724464458,-1.644074489490191,-0.9595654717841612,12.573866054336158
2023-12-07 14:03:42.663575,10.106629444291496,0.5764726997116446,-2.21184599004943,2.761388523483438
2023-12-07 14:03:42.665642,-2.785859719905553,3.12282796738927,-0.9274212754277015,-5.135948126577681
2023-12-07 14:03:42.667672,6.589918532123451,5.443783300565707,0.3766493559729122,11.81722265555711
2023-12-07 14:03:42.672726,28.474902456783415,4.828585585592797,4.897339824985766,22.608976352848057
2023-12-07 14:03:42.677203,31.608869556335392,-2.233446414948652,2.9876551740191535,16.259601801861695
2023-12-07 14:03:42.696788,14.659012457837731,-6.71400801832568,-0.6660819776196317,4.000114776779358
2023-12-07 14:03:42.696788,-3.152299770017199,-5.312598394611942,0.4314671004326689,-10.19730358139374
2023-12-07 14:03:42.700244,-1.6980442839870327,-4.35725477368429,-3.585219804112777,-13.324838675979487
2023-12-07 14:03:42.703275,19.957315497936783,-1.6754421255592675,-6.809134489327352,0.027617789738692212
2023-12-07 14:03:42.711701,27.222175338191352,-0.46933481841467783,-0.260798741723154,11.560063820565242
2023-12-07 14:03:42.716215,2.120103880276986,-4.703525539405913,7.300072511156881,3.737556076381257
2023-12-07 14:03:42.720688,-19.0021573399626,-3.9332452354874294,7.047210883387038,-9.83714068609605
2023-12-07 14:03:42.740306,-6.295617591451634,-1.0757553132547275,4.143508885105357,-4.651255684808888
2023-12-07 14:03:42.741310,21.777678391003736,-2.930854317704352,4.888186785578432,11.573590109713548
2023-12-07 14:03:42.744416,33.59024088784803,4.323910279128758,1.6303365328349246,15.965149747336001
2023-12-07 14:03:42.750602,19.757861932374684,17.798642160756195,-5.79082937156466,10.704595810394538
2023-12-07 14:03:42.755301,-0.060870913692918145,18.573649494260525,-7.352854340392998,6.473593672185895
2023-12-07 14:03:42.775837,-3.322618220598504,7.298023884402434,-3.8969136261860715,-0.451341508593554
2023-12-07 14:03:42.776845,5.38990265034474,-5.241717275394007,1.9317854793918026,-6.440184842851826
2023-12-07 14:03:42.777853,10.48247888697472,-7.30711728007525,5.903149447663462,-7.703850076151119
2023-12-07 14:03:42.782403,5.417217213762462,-2.254427025840692,2.828618173757201,-10.805915222993418
2023-12-07 14:03:42.789852,-7.857476930486726,-5.590591732702827,0.8821610895606687,-11.917267460415458
2023-12-07 14:03:42.796991,-12.444773936785595,-6.386557468177255,2.2174976856325714,-12.93177970294271
2023-12-07 14:03:42.802182,8.271841186013996,3.484165339819839,-1.1952496488599822,-12.92830893579959
2023-12-07 14:03:42.809367,35.60676977598813,5.95459483669942,-2.7370976459267107,-0.531609306282736
2023-12-07 14:03:42.817695,28.245403039332583,-0.6565159215729729,2.0742702321163917,3.698444485596579
2023-12-07 14:03:42.820216,-9.20645526498024,-5.3400546037900405,3.382152421598122,-11.344470312099034
2023-12-07 14:03:42.827578,-20.381280610752036,-6.290035671668175,1.8395994779077205,-11.146592063018861
2023-12-07 14:03:42.832783,7.346394309010451,-6.364303950728632,3.558501719832971,11.103957337265275
2023-12-07 14:03:42.853594,30.64933422770788,-6.737293742363174,2.1718357170413607,20.9871003831172
2023-12-07 14:03:42.853594,31.22187706168309,-4.337871424416002,-3.261136012129921,12.38403496900181
2023-12-07 14:03:42.854602,9.974594564454346,-2.56330778345561,-0.5140430381566958,9.773789632164513
2023-12-07 14:03:42.860286,-9.421402082445818,-6.651145947590618,7.49749002232677,10.786499967393253
2023-12-07 14:03:42.866336,3.5095747098125596,-7.548857922392791,5.533400077625742,2.332933802778661
2023-12-07 14:03:42.872527,22.718528963619836,-4.714298124570099,1.7026927266627114,-2.8620730888199626
2023-12-07 14:03:42.874611,17.068138881481712,-5.563575765241346,2.832352725604178,-1.7644408323312726
2023-12-07 14:03:42.885792,0.5870005406448175,-6.1048060781952636,0.5628116992710516,-3.3619354549978384
2023-12-07 14:03:42.891299,-7.866465033728772,-1.8693853604091881,-1.0120112680671618,-5.239671846088688
2023-12-07 14:03:42.911584,8.805786058977908,3.313729547092734,-2.8509833409127134,-0.7900552436934779
2023-12-07 14:03:42.912593,30.84196085905266,3.168785413524385,-7.151220272692353,10.878443856855881
2023-12-07 14:03:42.915107,16.03029352553673,-1.116618735599055,-2.844901176506289,9.261611357011136
2023-12-07 14:03:42.918476,-16.92758529180614,-4.4222533838658675,3.882574841029225,-11.81912595875047
2023-12-07 14:03:42.924501,-28.23511352157357,-6.652290367558119,1.564116838636374,-23.171953143239445
2023-12-07 14:03:42.933344,-6.489277816933826,-3.831374584246613,-4.994330446238324,-15.321177344554329
2023-12-07 14:03:42.944858,28.43946173501194,3.5193194129522753,-8.963104790895313,-1.9579473013598048
2023-12-07 14:03:42.950301,26.197644672226804,4.736490463645289,-4.206678575906453,3.662013341079526
2023-12-07 14:03:42.953325,-11.573701248705383,1.2558876389810487,4.689664463667917,-6.7769888514178
2023-12-07 14:03:42.959861,-33.974636169006104,-1.6866657965776306,5.368577365421729,-18.520709291524263
2023-12-07 14:03:42.964302,-28.14468261382764,-6.110706258704815,0.7789737965633782,-13.032650730822214
2023-12-07 14:03:42.972908,4.2920208529059405,-5.496404679756697,-2.7418516302860776,-1.1150467124491947
2023-12-07 14:03:42.979760,39.49995936295122,2.583944061359538,-6.469487070801446,1.1810342068693587
2023-12-07 14:03:42.987661,25.08164279567589,6.47501639648876,-7.620147402668341,-3.007797164249016
2023-12-07 14:03:42.998213,-10.884026478850066,3.4644308677189226,-3.643809497170509,-11.936506571769856
2023-12-07 14:03:43.016297,-4.587759361265423,-0.5476666481983069,0.5921498915433325,-16.551781500788145
2023-12-07 14:03:43.016297,19.450365502017434,-2.549839183036868,-0.7088092245871229,-5.830919973011327
2023-12-07 14:03:43.017295,17.93506498407671,0.39142896483164535,-4.614445933042153,-3.167650650047624
2023-12-07 14:03:43.021844,-2.9726218168539504,3.0609181190616974,-4.186404257751274,-15.567377260808973
2023-12-07 14:03:43.030098,-18.6076012507796,-0.1302896137051977,-1.7047349611451765,-16.877170283608052
2023-12-07 14:03:43.040833,-10.296044879060332,-3.8415240455474704,-1.386452616792284,-7.186793351313267
2023-12-07 14:03:43.049297,10.761202464442345,-5.376462225410642,-2.7051559415442994,2.493960112135011
2023-12-07 14:03:43.055507,22.148614275251017,-2.5891703283847596,-6.4110340770742305,8.97467440251704
2023-12-07 14:03:43.062328,18.07692951705207,1.2171446832528532,-8.147303534584797,5.336742991785946
2023-12-07 14:03:43.068519,-3.5013723745709044,-2.4285053210054524,-1.825074977007817,-7.624377055251945
2023-12-07 14:03:43.074645,-18.982657288441708,-3.3965912064193637,2.2822292315946746,-16.036845660881855
2023-12-07 14:03:43.093632,11.404386071444181,1.8476865678179704,-5.510782497880078,-3.161210378240997
2023-12-07 14:03:43.101938,52.716053822177834,1.8803626248713328,-7.514148745214958,17.8251305431289
2023-12-07 14:03:43.101938,38.475979440693216,1.3095262514174646,4.317824549991076,16.240972548147482
2023-12-07 14:03:43.104957,5.444026250820552,2.040388703778725,5.307845820706785,1.4024087488352135
2023-12-07 14:03:43.111242,12.361856316065573,0.9822341969319955,-4.351946751525815,-1.5190431082332967
2023-12-07 14:03:43.120725,32.64532090258395,2.5974155903753573,-1.0094604266397522,6.2983713893482385
2023-12-07 14:03:43.125172,37.55745648762043,2.0120899949938345,6.637580778324945,10.87563411115829
2023-12-07 14:03:43.131913,26.203111634985344,-1.841990174529157,3.9423104031676326,-1.162054980354437
2023-12-07 14:03:43.138253,6.7488451555917655,-2.957192924975775,-0.2851902089650308,-16.40693623759996
2023-12-07 14:03:43.144560,12.37940317715737,-2.0465823758974366,-0.3491665197930506,-10.007397362826776
2023-12-07 14:03:43.151776,41.297213211661706,1.460446111459843,-0.10010008876857193,5.765437567468366
2023-12-07 14:03:43.154975,50.54818368300554,5.848550105373944,-0.885289476106495,17.201362636621845
2023-12-07 14:03:43.163580,34.15911203203275,8.419152084807703,-0.7431741052941816,21.352545419872737
2023-12-07 14:03:43.179481,4.597747500551102,7.9861173029910395,1.0418478039237422,5.917973641080989
2023-12-07 14:03:43.180516,-27.42705582400258,3.065472506122747,1.426154319003667,-7.677289880888634
2023-12-07 14:03:43.181524,-23.998354588926055,0.9502841267319448,-1.532149839260465,2.8916561567541255
2023-12-07 14:03:43.186546,8.068618594430017,3.011702725080383,-2.2163638923815427,13.540682307452311
2023-12-07 14:03:43.194680,5.88949273836393,2.349281052835386,2.9415940784742847,10.22051660337693
2023-12-07 14:03:43.198725,-25.685844837038957,1.5955096084720732,6.57013645981629,4.307447003601206
2023-12-07 14:03:43.205782,-40.03007939857277,0.850067888455147,5.958557115332513,2.430371607714915
2023-12-07 14:03:43.216162,-33.643855654933006,-2.816308378494609,4.673156136592025,5.1085721348408235
2023-12-07 14:03:43.224517,-14.720870592806477,-3.7147885264968563,3.6331742042922577,14.889268921930345
2023-12-07 14:03:43.228745,-4.455387431273551,0.2782766774384279,5.482504519029943,22.781387993500687
2023-12-07 14:03:43.236583,-20.318741456078154,3.618633715454942,5.7531401580172234,12.446395140195028
2023-12-07 14:03:43.240696,-30.744792044118196,3.3999058274237326,-0.018146518065610618,5.786065713482553
2023-12-07 14:03:43.259329,-19.40660327678498,0.7138826859440612,-1.9854895451529213,13.988409914840044
2023-12-07 14:03:43.267387,-12.49152310313994,-2.1332924243490705,3.007561792817859,6.857178992279901
2023-12-07 14:03:43.268418,-16.446265913954214,-2.451297808638664,5.853105233095851,-5.352731516687827
2023-12-07 14:03:43.269424,-21.42270091712215,-1.685998543986258,3.6761028718798645,-4.9509417621874245
2023-12-07 14:03:43.274946,-24.350267681197654,-2.4467293144325177,1.589131050662616,-3.0306016429765785
2023-12-07 14:03:43.277964,-18.418307998086526,-2.954262854579597,1.8631126846738433,2.5285932678851157
2023-12-07 14:03:43.287180,-6.025678641264688,-2.3278370190894684,1.8060873515731426,2.6590937676751083
2023-12-07 14:03:43.291293,4.446200408763641,0.5561477406430866,0.2561498043105983,-6.086450993891592
2023-12-07 14:03:43.300016,8.315285969426897,4.7964628601430395,-2.1787701270727204,-3.262015090972396
2023-12-07 14:03:43.308299,-8.29293910677056,4.174506433273402,-0.8533083752179083,7.928731420037937
2023-12-07 14:03:43.316420,-32.83355660311576,-1.238184785207866,4.6007076096373805,7.728925933254854
2023-12-07 14:03:43.321681,-29.766080082453428,-5.960310463050039,4.818527128332023,-3.3267828829425365
2023-12-07 14:03:43.330106,-13.21178816187339,-6.1221425076500955,3.2749737428985615,-3.632918894418392
2023-12-07 14:03:43.337816,-12.889179531581686,-2.350033049513892,5.6767865154957615,5.404783226136532
2023-12-07 14:03:43.344978,-12.830289268467723,-0.0037665174243632234,2.0433759843779953,0.41403032371617515
2023-12-07 14:03:43.351161,2.5495533045000376,0.37957266475761664,-6.8997137921944525,-7.954733151210989
2023-12-07 14:03:43.356217,18.789085775246164,0.2536214437596115,-9.237100258036945,-2.6619290996065614
2023-12-07 14:03:43.364433,21.52688259220553,-0.2839712895253486,-3.800858721777803,6.071502647045893
2023-12-07 14:03:43.370539,11.795715130503329,-0.4254559415752915,1.0063552056321206,7.220032947459252
2023-12-07 14:03:43.374636,1.5403396579343962,-1.6098997474082595,-0.04266661655082599,1.9210493391623604
2023-12-07 14:03:43.379952,4.790839580967947,-1.235910839705468,-1.6543205840732331,4.507798987585125
2023-12-07 14:03:43.385195,22.441535039296724,1.3263298881748709,-0.7617291389688434,12.69930159332936
2023-12-07 14:03:43.392327,34.67078581213013,1.3825295103035138,-0.6645431066462062,7.258937638756304
2023-12-07 14:03:43.404915,27.587312998309272,1.4369385042125453,-0.9769953461078278,-0.9097871838788555
2023-12-07 14:03:43.426652,17.238218462227323,3.053706177983751,-1.1343632660424052,1.9619970072446127
2023-12-07 14:03:43.426652,17.31786983003022,2.9377183194737504,-1.0674095648124506,2.3041956076044965
2023-12-07 14:03:43.426652,18.860964823271598,1.444223609757917,-0.032833487347222724,-1.4489619936321099
2023-12-07 14:03:43.448631,20.40996446285218,0.6236275599582677,0.4034841070441392,1.4273905040551391
2023-12-07 14:03:43.448631,22.852466904896676,1.6540876063648293,0.25519811229531913,4.897507707893872
2023-12-07 14:03:43.451687,16.34100976121299,2.1677078422088143,-0.0974943064704454,0.9927121476577803
2023-12-07 14:03:43.456762,11.658493228176727,1.3176235848104936,-1.8878106474414058,-3.1995485167176714
2023-12-07 14:03:43.469242,22.175832757784708,2.0465891819695643,-2.828751747265296,0.6930167375920914
2023-12-07 14:03:43.477241,25.299535833130925,1.7695803512678516,-0.5041469928675549,5.624915777198593
2023-12-07 14:03:43.483278,7.715161311516687,-0.7902029800771833,1.9738080896733674,-0.27678485354507354
2023-12-07 14:03:43.490485,-7.651931741407079,-1.1677025414679936,1.8027300645613689,-7.532078130080266
2023-12-07 14:03:43.498052,-8.51043051046151,-0.32622946622118676,0.6824670032715159,-3.2138282143989536
2023-12-07 14:03:43.520643,-1.6336771189960586,-0.9234366538743932,-0.0018821350545642022,3.12473221175925
2023-12-07 14:03:43.520643,7.826408601513291,-0.9072680927216065,-1.072958617351192,4.914478407372468
2023-12-07 14:03:43.520643,10.96837039486111,0.25408550495465526,-1.7464769795891089,4.986738636357861
2023-12-07 14:03:43.524739,4.69813193550969,1.0932186419995413,-0.9700702580344057,1.453059073244023
2023-12-07 14:03:43.533050,-1.0520259557614287,1.5080826304661306,-0.5653491813695959,-2.9506910276184195
2023-12-07 14:03:43.543395,-1.5442348073115726,1.0869337563597012,-0.6633135641321724,-3.6908942078716622
2023-12-07 14:03:43.550470,0.6889749402939815,0.21373549053025998,0.22523162261583832,-0.8076778687864737
2023-12-07 14:03:43.558627,1.2432234856847288,0.16691516186605646,0.8009095530658067,1.7642174348171689
2023-12-07 14:03:43.562126,-4.716163482341831,-0.6002814926025506,0.21693642857888304,-0.856028282355338
2023-12-07 14:03:43.569371,-11.625590169934396,-1.9762637148649262,-0.2693336305757194,-4.520238473627194
2023-12-07 14:03:43.579512,-7.704919313467238,-0.5429656069500925,-0.07997603636777478,-3.712583192461194
2023-12-07 14:03:43.586746,3.6845229635362617,1.882155759454647,-0.2677865771564866,-0.7920703808965494
2023-12-07 14:03:43.604350,6.3843692079589935,1.5807150880835026,-0.6270001473640029,0.20946331389189662
2023-12-07 14:03:43.604350,-1.3503583753100448,0.4404440147379919,0.33653295425628876,-2.192032884716998
2023-12-07 14:03:43.606664,-6.566599237094175,0.2566528283027936,0.8399285724264426,-4.881051376811443
2023-12-07 14:03:43.609748,-5.346987055628526,0.22819083746323507,0.2757877260322628,-4.745380497006117
2023-12-07 14:03:43.616403,-1.9005740856823186,0.12148858791909427,0.4412366693560273,-3.5833434346800743
2023-12-07 14:03:43.644535,0.2028932865545592,-0.3793248651497623,0.4399817903591016,-2.5552312219880835
2023-12-07 14:03:43.644535,-0.5237369190733576,-0.5944813166743873,0.6780921115430928,-0.23426464796198235
2023-12-07 14:03:43.646584,0.12226380553143065,0.5232513933195723,1.0319820260801356,2.4286168722371095
2023-12-07 14:03:43.648930,2.481627955898397,1.2777321716256103,-0.05928044293788905,2.674418519573042
2023-12-07 14:03:43.654963,1.7476078322873017,0.5240457771503412,-0.27012139576089295,0.5487598477171252
2023-12-07 14:03:43.663176,0.6716781783132821,0.11263087286393993,0.605262699662085,-1.2472975531888837
2023-12-07 14:03:43.673295,1.198250847441155,0.5280710511341747,0.4703445264961842,-1.2729043845313606
2023-12-07 14:03:43.700026,-1.688676719219876,0.17098631917141754,0.30707327236061027,-1.3631206098601756
2023-12-07 14:03:43.700026,-5.258674422020368,-0.4165532158507992,0.5349749407889063,-1.9376515787164774
2023-12-07 14:03:43.701036,-1.7139231668320296,0.15818605206523187,0.3545509168259621,-0.5863074146584117
2023-12-07 14:03:43.703218,4.271387278103806,0.7596277826969718,-0.338618051181856,1.2712252391797265
2023-12-07 14:03:43.707760,2.39737619519683,0.38036663593964803,-0.5180601282516083,0.3405640083582456
2023-12-07 14:03:43.722059,-5.236271011026578,-0.5093634728282556,0.3133066816220437,-2.364162773440955
2023-12-07 14:03:43.731128,-8.20249732229358,-1.2278794767124883,0.3627426299227693,-2.684299005193335
2023-12-07 14:03:43.735167,-2.8977574157554287,-0.8207272163501057,-0.5344564478531383,0.5283895783908988
2023-12-07 14:03:43.743745,22.25188955915307,-2.390656212332801,-5.9489968127100505,13.917737286230544
2023-12-07 14:03:43.753860,2.9423647001000037,-4.111059878429301,-6.149968504160264,0.10344217957725561
2023-12-07 14:03:43.759899,-35.876231507237335,-4.806427320155169,-1.600623719245427,-9.1228902731079
2023-12-07 14:03:43.766203,-45.86784997699163,-0.9767566138589844,4.8824983607501204,-13.3478113340122
2023-12-07 14:03:43.772220,-18.707787554043982,3.0090044051245055,6.016287983494656,-12.239963393820206
2023-12-07 14:03:43.779283,22.19899185283366,5.520196267033656,3.9078259503005226,3.4395292780861313
2023-12-07 14:03:43.785464,17.538130098062545,5.708990718167321,5.429081992151834,8.460303231777337
2023-12-07 14:03:43.793541,-25.37747284793665,6.213577293946068,12.375623711158573,-3.5870383882968193
2023-12-07 14:03:43.813202,-39.12904597120155,5.751192433572017,13.334383236703898,-10.575105423854215
2023-12-07 14:03:43.817913,-18.71404713534279,1.0449826191322957,3.7975559482068673,-7.510754653178458
2023-12-07 14:03:43.821941,-2.4323329372187246,-1.5073571787338005,-1.2858538223283102,2.5065273179218965
2023-12-07 14:03:43.843305,-5.7457168569289925,0.22817288393473692,1.9221239983349692,6.378769021434655
2023-12-07 14:03:43.844310,-9.600647300587013,2.102449623966407,3.7779865849988634,-0.623245874657873
2023-12-07 14:03:43.845525,-14.962095029206614,1.908272229039965,3.1993440311440526,-6.683312265678405
2023-12-07 14:03:43.849556,-41.17840669237601,-1.5970846877440363,3.035418050689769,-12.098156830580956
2023-12-07 14:03:43.856022,-49.466879447242654,-3.0087880872924333,3.9329180559104286,-8.50449152644239
2023-12-07 14:03:43.880963,-30.86046070114006,-0.5758750134563921,4.61526162380974,-1.3168614681012494
2023-12-07 14:03:43.881971,-26.535904892316392,-0.6489124384211223,2.1997577081977364,-7.771584516220783
2023-12-07 14:03:43.882976,-17.268098199363628,-1.147944846587084,-0.389449959439898,0.07707728204235867
2023-12-07 14:03:43.887039,-4.092563990259727,0.9310143060356503,2.0822863954542083,17.571045858111788
2023-12-07 14:03:43.893206,-13.573395435353811,1.6821173209949878,5.088493437374354,5.559267735189519
2023-12-07 14:03:43.905910,-17.443607019281,1.099055166716676,3.4479595461340633,-10.541220009376378
2023-12-07 14:03:43.912307,-22.10342540846593,0.6486732638485354,2.7136150558314163,-12.953166185311758
2023-12-07 14:03:43.921858,-42.89075935072287,-0.7348651394252173,3.925175411113109,-21.4989420164954
2023-12-07 14:03:43.927263,-39.45889417057142,-1.0325492588415197,2.9525038805571335,-20.027160388043885
2023-12-07 14:03:43.931311,-14.223021161292749,1.5137696247308037,4.189792986551359,1.985805290081568
2023-12-07 14:03:43.938383,-9.26873082911745,1.919274924021245,6.189887358482819,16.730894959788014
2023-12-07 14:03:43.943529,-15.654552241127258,-0.6812085003022008,2.8597772102766754,10.98654810623418
2023-12-07 14:03:43.977062,-8.0844653435538,-0.6721922046031943,-1.1433508255592637,0.5699672018435195
2023-12-07 14:03:43.977062,-10.986388537102178,-1.9498002446593876,-2.8152929459851563,-1.7699363001411612
2023-12-07 14:03:43.979081,-27.055039339538915,-6.289761407270461,-3.9981709008404787,-1.7528903358216932
2023-12-07 14:03:43.981090,-17.49565983967805,-4.9154001241384355,-3.358752864926898,-6.190249433289331
2023-12-07 14:03:43.988858,-15.133234465217585,-1.4915753307011315,-0.16900470261994216,-13.996826935085302
2023-12-07 14:03:43.998376,-43.70988653770043,-4.376922065489901,0.5966937714751253,-21.684106943908017
2023-12-07 14:03:44.004394,-41.6789294881289,-6.727757869732555,-3.0419890657023627,-17.252972739346127
2023-12-07 14:03:44.014705,-10.030075643024638,-4.423234664469193,-4.475733592092867,2.1358861438524093
2023-12-07 14:03:44.021957,4.960755267881433,-4.4070307735594385,-6.042151010427467,14.556483598098373
2023-12-07 14:03:44.050000,4.290260976249174,-4.77692188377927,-7.3534516043918225,10.3798554634621
2023-12-07 14:03:44.050000,-8.60957586663322,-0.8035922147553229,0.01708230221028803,0.6679489036375676
2023-12-07 14:03:44.051047,-16.622807689944594,-0.3562327404048314,2.1977630508509685,-6.128956984073918
2023-12-07 14:03:44.072884,-0.06915574688563328,-4.577922778016934,-7.055860503125677,-2.9041552227426046
2023-12-07 14:03:44.072884,14.41979709976789,-5.729293700847353,-11.211745992432846,4.652598801218053
2023-12-07 14:03:44.073893,5.029657469235465,-5.98469271171372,-10.06602803262666,4.9278039210393345
2023-12-07 14:03:44.079383,-16.327771471204287,-6.712294336616109,-6.516462096982318,0.41306885744554195
2023-12-07 14:03:44.083417,-26.139693121708106,-4.382112384744448,0.013421987573898814,-4.689740543872967
2023-12-07 14:03:44.094113,-6.10660693357162,-0.5919801888767958,0.9121177151886616,-3.9570122828008913
2023-12-07 14:03:44.097179,19.975189457105152,1.758432690831714,-1.9019441187683197,0.8362679837705824
2023-12-07 14:03:44.107575,15.997175324067367,1.2259441910568518,-0.8160049904646711,-1.4916772104505835
2023-12-07 14:03:44.113836,0.21162203707871563,0.22164265919017415,2.863493984599413,-1.2783919261305972
2023-12-07 14:03:44.122230,-5.244957740212983,-0.1256212400230931,3.5812045830431964,2.6303908986742077
2023-12-07 14:03:44.129280,-8.299280453227217,-2.0712199665875195,1.0074003465366683,0.6288354329396626
2023-12-07 14:03:44.141160,-3.1595563456800355,-0.9840753855277828,4.799308352462905,8.10245396498193
2023-12-07 14:03:44.168429,1.7365704019832477,1.2450427011732397,8.989990723936062,12.627643830922123
2023-12-07 14:03:44.169514,-3.060479276462217,-0.8322251719301443,0.707752643425574,-8.473771006300563
2023-12-07 14:03:44.171659,3.736233460266182,1.0220579803848677,-4.1268003222788865,-21.97341531705409
2023-12-07 14:03:44.177693,15.478720215494889,4.516939324492136,0.3322708882665655,-14.95589154034314
2023-12-07 14:03:44.180712,20.983255157866484,2.395294533488336,-0.98135069358029,-7.65549754943428
2023-12-07 14:03:44.195970,22.04095659065582,1.633133590578218,-1.2427403158169412,3.580807014201008
2023-12-07 14:03:44.203028,6.250098376986587,1.7010236782472918,2.5583325883278,2.2165242442791584
2023-12-07 14:03:44.207429,-0.6521168244245751,1.5421790382653418,-0.22304808338534746,-14.857762699151962
2023-12-07 14:03:44.211446,19.19469800422697,4.218417371779925,-4.252976401147316,-7.889496722387493
2023-12-07 14:03:44.224185,29.773092657775923,4.078830640526178,-5.0769635392519366,6.180638510028656
2023-12-07 14:03:44.237934,25.93162314009633,3.3481863204058673,-3.998721298410637,-6.470553233144492
2023-12-07 14:03:44.256597,21.58010102179222,5.1823663406858005,0.7577331374168609,-16.20098236021662
2023-12-07 14:03:44.266104,14.99291470380486,4.663108844956094,3.603332678534515,-11.070509022575932
2023-12-07 14:03:44.266104,14.139704117642648,3.6375643531840676,0.09722680806807121,-12.329773894488657
2023-12-07 14:03:44.268285,10.815365008132952,1.4322634912842216,-4.095626597009195,-14.809048987374515
2023-12-07 14:03:44.273330,-3.801029103687603,-3.5711846289374667,-3.5111624190782527,-10.029043697141308
2023-12-07 14:03:44.279740,-11.412222871531663,-5.485267110204508,-1.3176887017523544,0.3635782240297896
2023-12-07 14:03:44.286788,-13.329663977665856,-5.118403396303941,-1.3500845271543696,8.967904263492528
2023-12-07 14:03:44.296040,-23.08744483245673,-7.03275423885985,-1.922656662097123,-1.2747034299239344
2023-12-07 14:03:44.304228,-23.629250699598217,-8.5086081248626,-4.196977353272212,-11.831874427617853
2023-12-07 14:03:44.310574,-8.235863511944316,-5.841377877614426,-5.051815747527704,-0.12339839836520365
2023-12-07 14:03:44.319106,-6.89291380623881,-3.5622811897699034,-1.0657380379668928,2.6425737666161817
2023-12-07 14:03:44.324418,-19.715930995594814,-5.708752677146837,-2.86031291127401,-5.253999255787772
2023-12-07 14:03:44.333578,-21.782561745456,-7.940496044599146,-9.611711740662495,2.0775611609369067
2023-12-07 14:03:44.341887,-25.606974342857246,-10.665432364743843,-9.671364825598543,3.353721228802488
2023-12-07 14:03:44.350318,-32.295582993071946,-13.373265826725175,-8.389717622913173,-1.788792835712841
2023-12-07 14:03:44.357530,-25.606759187743652,-10.960035178943638,-9.12955097039969,7.4376720434151835
2023-12-07 14:03:44.363594,-21.0237786352204,-7.845805495823448,-6.6809288535766305,14.462177224298207
2023-12-07 14:03:44.370746,-22.51130191553811,-7.441737367652068,-5.022970290643264,11.953324694236231
2023-12-07 14:03:44.382496,-22.187243908017837,-8.291745037597762,-6.001632641466588,10.776812793434818
2023-12-07 14:03:44.388914,-19.009778005554807,-8.441923026796758,-5.3235423650575,17.60083191012981
2023-12-07 14:03:44.394431,-11.68413838181805,-5.909664513864162,-4.520414210188649,25.713989715768236
2023-12-07 14:03:44.401769,-15.856571215151579,-6.380137769877737,-6.1506544438429565,19.257378196859655
2023-12-07 14:03:44.408004,-23.485200018080707,-9.294312667965086,-8.121619192013553,14.48667823364781
2023-12-07 14:03:44.424337,-15.293868434809976,-8.05522414563973,-7.0097842754583874,25.141004115216468
2023-12-07 14:03:44.429551,-8.033056283956489,-6.030732272599447,-2.068025578217227,35.426848338483545
2023-12-07 14:03:44.454380,-8.921342909371576,-5.31448436179057,-0.3622456440942059,38.47723128560036
2023-12-07 14:03:44.463510,-10.400227318964077,-3.922127728679398,-3.41429407827896,28.07668179619083
2023-12-07 14:03:44.465842,-7.06971720849401,-1.6702568987750623,-1.5038447950611717,17.871900988046306
2023-12-07 14:03:44.469290,2.8239211302041523,0.10625395095489358,-0.4513291942955775,26.328692297781764
2023-12-07 14:03:44.471321,9.559360241211635,0.5092132009629062,-5.014750740492066,27.454249160302727
2023-12-07 14:03:44.475346,12.809348697491435,1.512307002805246,-2.3940810838884246,15.435626501201943
2023-12-07 14:03:44.487862,8.385926089605077,0.43055802784271097,-0.5800377783831183,10.521592751237405
2023-12-07 14:03:44.499042,2.8091036086153554,-0.7234695933131258,-6.469860231197236,9.572858698488274
2023-12-07 14:03:44.504637,13.002327314855393,2.549528592253007,-5.217011383860485,13.3714764818407
2023-12-07 14:03:44.508702,14.503787837425666,0.7243078068634573,-1.1861622633893756,17.966691379887273
2023-12-07 14:03:44.521313,8.816847601330043,-2.1724482687175266,-2.5749938771837186,17.411471925779363
2023-12-07 14:03:44.530108,22.277238748144605,4.659330626449516,-4.129074192596955,22.127705735719395
2023-12-07 14:03:44.555315,27.638888533746048,7.547951871838803,-1.7965518077923803,21.64435365922865
2023-12-07 14:03:44.556348,14.478314088807974,0.5253142168727013,6.938215221201809,7.564689010122112
2023-12-07 14:03:44.559506,4.726154038408992,-4.644296882478176,8.982297973275235,1.1076192969289662
2023-12-07 14:03:44.564579,2.9759187940038667,-2.814232484021786,-1.2878751027062354,2.37808584805128
2023-12-07 14:03:44.571686,5.167108038688005,0.7602698464094092,-3.393402329446988,-2.85661366403647
2023-12-07 14:03:44.584039,5.156203857566539,0.16719862772001465,4.427993527837836,-3.5529040565522862
2023-12-07 14:03:44.589266,12.32708051890387,2.667672815099801,7.1219311897639646,1.74680236495077
2023-12-07 14:03:44.598349,22.480100862428934,7.343993600095583,5.500048067737107,1.3503250991850115
2023-12-07 14:03:44.602431,17.475652629384754,4.020210846867426,5.656245920141431,4.260320669582167
2023-12-07 14:03:44.614371,18.092988237514156,5.491631982838577,5.497187678520732,10.650776977798916
2023-12-07 14:03:44.626692,28.370196336363307,15.276769507905456,-0.0754706036621372,8.721968123529756
2023-12-07 14:03:44.632746,19.42311422805507,13.255275021016585,-5.3869042412559365,3.216880604374618
2023-12-07 14:03:44.653623,0.28698993492781416,1.174259309933395,-1.1598738699175217,3.1451559564698575
2023-12-07 14:03:44.653623,-6.284022890119711,-4.885298068516513,5.04117617436083,12.450219908347355
2023-12-07 14:03:44.654623,-0.19138818627636098,-0.7689070389519412,2.437470270754841,17.451247063917187
2023-12-07 14:03:44.679157,15.308707976194555,10.846736742151275,-4.247940703483204,3.7903897103863042
2023-12-07 14:03:44.680290,27.04923905084494,17.04382365189122,-4.627789401498102,-5.786474149422973
2023-12-07 14:03:44.681309,22.388662077342804,10.325539405176507,0.20476300892694152,8.493389692714638
2023-12-07 14:03:44.686533,14.410533304932533,4.620049602707309,1.1653026950993275,20.562124059497933
2023-12-07 14:03:44.690805,10.698586575003773,4.120784501823984,1.276340285018374,5.298064126645383
2023-12-07 14:03:44.698007,9.29495141932941,2.6373310020993044,5.814095051851507,-9.702312192606783
2023-12-07 14:03:44.710252,14.398093826511655,3.6397815941428138,7.5165853593933,0.23881103931310604
2023-12-07 14:03:44.719690,11.558021065552587,1.6631777663951357,5.200626987634867,9.301318641575216
2023-12-07 14:03:44.730075,0.6128477543207504,-4.0686164340633715,2.8709877751359882,9.016587410741252
2023-12-07 14:03:44.755276,8.445779623527589,0.9845484363659119,0.11068797713111836,10.267088612864463
2023-12-07 14:03:44.756312,20.721244082863212,8.593559594034522,0.7194652648430655,2.62476811780673
2023-12-07 14:03:44.757320,10.226086973698353,3.402647172057163,4.4731027761124,-10.535393168316952
2023-12-07 14:03:44.764826,0.025665550175314182,-2.0887305803558696,6.427184528232193,-18.427566717862042
2023-12-07 14:03:44.774954,7.981626733042633,1.660156093934563,7.860285955400058,-19.952053948402508
2023-12-07 14:03:44.779142,15.704866413484613,5.358674603004948,8.169737478386644,-15.457833465044722
2023-12-07 14:03:44.786198,11.294263155619063,3.9861366225485586,6.120118526192649,-14.315800984601207
2023-12-07 14:03:44.792489,5.175484157944568,1.8905273237285862,3.9445245459052756,-14.945688139448396
2023-12-07 14:03:44.799528,4.337682772546609,0.9215307799326194,4.1833551214552225,-10.32974757213972
2023-12-07 14:03:44.807692,10.186524854691017,3.5732845561099444,4.762700851662338,-7.490143987452373
2023-12-07 14:03:44.813730,13.039928775831287,6.196737729962588,3.157660817724123,-9.573609022500387
2023-12-07 14:03:44.825336,5.192216059113945,2.16909094730427,3.3272553580321227,-13.982218730165531
2023-12-07 14:03:44.833477,6.837504724529262,2.45012767045062,4.711282527685912,-15.710217325271453
2023-12-07 14:03:44.845110,24.744739833911407,12.760933317619978,3.2132917847977405,-11.911167810757405
2023-12-07 14:03:44.855654,26.442397015702813,12.424964418129953,5.4315998458845085,-11.520659877914698
2023-12-07 14:03:44.871110,10.264152897354146,0.39971042797689704,12.253068482333802,-18.48091176036229
2023-12-07 14:03:44.878044,9.682810321587672,-0.0880935276402042,13.242860940807208,-22.842985928306806
2023-12-07 14:03:44.897547,16.769786408437994,5.3929302520296805,9.50936667060651,-17.451280488259115
2023-12-07 14:03:44.897547,15.304370941303343,5.1760691760684,7.126886345302496,-8.759716101229802
2023-12-07 14:03:44.899691,19.964204557493968,10.025054362131344,2.3955333591174037,-5.4103951388948195
2023-12-07 14:03:44.904764,19.565564096918582,12.498020628271407,-2.3107009443828646,-6.791315031247333
2023-12-07 14:03:44.911869,5.7538711616620155,3.1357317184748785,1.3708726876564177,-8.713617783742478
2023-12-07 14:03:44.920609,5.09160980265384,-1.5025319304373597,8.855637237776957,-6.481844141034964
2023-12-07 14:03:44.932057,9.150181115729241,-1.5480978079249432,12.67572806675596,-4.536595522736414
2023-12-07 14:03:44.963535,2.9070475181369995,-4.286593457815843,12.019081894869927,-7.730002623934192
2023-12-07 14:03:44.963535,8.463751169109985,2.6683298674950793,4.2122155178630605,-4.23707242950741
2023-12-07 14:03:44.965575,16.17128737163186,11.850376219956354,-5.83357765024725,0.669933161502293
2023-12-07 14:03:44.971648,7.192462652801841,7.130399034848588,-4.690631154263905,-7.852559007726224
2023-12-07 14:03:44.977883,4.483655799027873,2.47288084725245,3.0261987697408896,-18.82070265058646
2023-12-07 14:03:44.987392,4.847430892632313,4.165139277889823,0.8333394977103262,-22.223093409293128
2023-12-07 14:03:45.001687,-11.107738459230571,-1.299258713811632,-6.026608158099564,-15.471343454483915
2023-12-07 14:03:45.008425,-13.17245512749509,-3.6573551584379973,-5.245309975815669,-6.137997168579637
2023-12-07 14:03:45.017848,8.298831912832611,6.490612602442848,-2.1824181708532127,-9.41660122610594
2023-12-07 14:03:45.021868,12.816947774431332,8.403480200322898,-0.19645572419444376,-15.553137068278335
2023-12-07 14:03:45.033147,5.307117681827058,2.9228757746504272,2.455442102633378,-14.853442341976889
2023-12-07 14:03:45.036392,11.326187043223069,6.359316844302809,0.8414005515365056,-8.167580193955056
2023-12-07 14:03:45.072354,9.917227061425093,6.625176008023674,-2.701250741870846,0.9501590388426187
2023-12-07 14:03:45.072354,2.718896447947198,1.7955667934893256,0.013615281095554958,-3.5185089539183694
2023-12-07 14:03:45.073356,5.83476868412611,1.4088811435590254,5.3920287742139195,-11.828019418069825
2023-12-07 14:03:45.079573,0.192812721411973,-2.101693502193524,5.730140091829338,-8.005429100083854
2023-12-07 14:03:45.088054,-3.1208160323863967,-2.7713458320607,2.9026962329861,-3.5583070632804294
2023-12-07 14:03:45.095837,4.237459956063882,3.4166486662861812,-2.0715193303739166,-0.3565175552131626
2023-12-07 14:03:45.103665,-3.902471207788928,1.8505113018908597,-7.038266150373519,-1.24953303601299
2023-12-07 14:03:45.131750,-8.764334582225414,-2.9631332049345858,-1.802805387891479,-5.664030590101512
2023-12-07 14:03:45.131750,2.5584661246940086,-0.8209506797781544,3.626661047699151,3.795121276576259
2023-12-07 14:03:45.131750,3.777064613722231,1.590668891107556,-1.841579976654101,13.88311862116296
2023-12-07 14:03:45.134836,-4.85269795956051,-3.5935925794017387,1.0948381136471275,5.71324467738509
2023-12-07 14:03:45.142617,-12.849177065600658,-10.767145024062083,9.203357219916457,-5.211357041396268
2023-12-07 14:03:45.174296,-11.492853817107456,-6.152640352978447,1.5309137586569808,-4.838890317515908
2023-12-07 14:03:45.174296,-2.946984392147583,2.0118382338076266,-7.620705487443261,3.902730919903519
2023-12-07 14:03:45.176597,-4.811576374155373,-0.618722781679585,-4.979661412687682,6.83390873270922
2023-12-07 14:03:45.179745,-8.104814387761609,-3.890618322698467,-0.3891621692606441,-0.1992038635708219
2023-12-07 14:03:45.183792,-4.628631466932827,-2.630724507376809,0.26537398572981996,1.6567814621836132
2023-12-07 14:03:45.200442,-3.8275324756927063,-2.053044741897306,-1.0730266253512453,6.319973187051271
2023-12-07 14:03:45.204602,-6.395194853143622,-3.1478135729453167,0.18174139678130516,-1.4297093613495293
2023-12-07 14:03:45.208707,-10.972542570832283,-7.7498761529213605,4.49341126812896,-0.2711498841269031
2023-12-07 14:03:45.218707,-11.75036161134851,-9.48649124551418,6.031631118223873,5.097902267011036
2023-12-07 14:03:45.233418,-11.493294548722512,-5.917567223455961,2.0672371102886586,-7.805292432230968
2023-12-07 14:03:45.241171,-10.607692596565283,-3.521529623735803,-0.6984315475998633,-12.721989352671859
2023-12-07 14:03:45.251471,1.5894799458506608,-0.178528606475238,1.5447906408097742,2.2546851241909702
2023-12-07 14:03:45.283193,0.5242733016452427,-1.8006910181403495,2.202616517024316,8.833898113098282
2023-12-07 14:03:45.284202,-23.852066938527017,-11.85052821369272,0.04928316234780692,-0.7266074759628521
2023-12-07 14:03:45.286366,-32.015192704716945,-13.066307545052936,-3.7268946854530776,-9.173457987018233
2023-12-07 14:03:45.292521,-21.94364908960806,-5.278222949501463,-9.526144476375192,-8.431034980444906
2023-12-07 14:03:45.299833,-22.232032468775348,-3.736735138868638,-11.661011548752596,-13.794779712363393
2023-12-07 14:03:45.304312,-26.807648062606795,-6.259912476262228,-9.599653821886925,-19.826568816917188
2023-12-07 14:03:45.314471,-21.237848681511863,-6.1434964769766784,-6.8164896650193185,-8.748652718799008
2023-12-07 14:03:45.334187,-20.472272032676763,-7.500299084866655,-3.789868028509445,-6.170387300908125
2023-12-07 14:03:45.342185,-29.81637316327029,-11.531838373477688,-2.355660540703353,-16.12591843379711
2023-12-07 14:03:45.362942,-23.712558071603556,-9.207264047846593,-2.9166896769426733,-8.146830423510192
2023-12-07 14:03:45.362942,-13.06249878484299,-5.152432157036603,-4.58056679758718,7.725198346457687
2023-12-07 14:03:45.365074,-16.896320416769807,-6.75221819792332,-6.55034565011166,12.978977408059377
2023-12-07 14:03:45.369156,-7.554952099028718,-2.1268576362824327,-5.8105630374407005,9.605965293223305
2023-12-07 14:03:45.375447,1.172105083676468,0.43124780710837163,-0.48009994166323,3.1642266724243733
2023-12-07 14:03:45.384144,-14.01928687259043,-8.12332147829265,3.516298289131091,-2.0346446979205948
2023-12-07 14:03:45.406329,-17.650572868598207,-8.031861910327438,1.3238624765350504,-8.288490030320476
2023-12-07 14:03:45.412213,-12.892606684828266,-4.068726681852573,-2.18285844491534,-8.447387761740154
2023-12-07 14:03:45.417222,-14.777501740185807,-5.56530825287714,-2.8635756705621347,-1.3285769842928021
2023-12-07 14:03:45.425776,-8.136225848526001,-4.148107650829036,0.5826502772986534,0.23219692394770888
2023-12-07 14:03:45.431170,-13.575073096497686,-7.857359261293101,3.490074217341486,-1.379164696905202
2023-12-07 14:03:45.449037,-21.55132383778556,-9.570011686962273,-1.309824579056023,-0.511405116863115
2023-12-07 14:03:45.453088,-4.9488387719247475,0.6910112341781844,-7.867747328406058,4.336020495092041
2023-12-07 14:03:45.461526,7.182078554102609,5.5166488731379,-8.465761552917227,13.282273669996881
2023-12-07 14:03:45.468629,10.966609952799068,5.509331812590443,-5.320703178059192,15.89892063583945
2023-12-07 14:03:45.497831,14.590526619324908,7.417179702745804,-3.3634600822941603,7.7319405698910355
2023-12-07 14:03:45.497831,11.220211508347166,5.594918614962212,-1.025969667314744,1.523067165372853
2023-12-07 14:03:45.498895,13.019028204768825,4.394881302223346,2.818718051040426,3.769883620738858
2023-12-07 14:03:45.504749,10.34071962537553,4.044451922600915,1.6897649124581149,0.7333527110219454
2023-12-07 14:03:45.512268,2.951850222536576,3.4509247753286623,-1.5037475033429295,-9.768362750950189
2023-12-07 14:03:45.529935,-1.3431913185121271,3.1176374451576594,-3.906883396309535,-14.131811385521994
2023-12-07 14:03:45.533957,-7.016310130581168,0.9250865210934621,-6.280833065893688,-9.888836984027355
2023-12-07 14:03:45.539371,5.902293204983126,3.8292143698225023,-2.41511626421751,0.16218497474410745
2023-12-07 14:03:45.544510,12.733219821609747,5.418591909330051,-0.028917463001213416,3.9205264114057132
2023-12-07 14:03:45.557190,-5.701377278134959,-1.0826109296056905,-2.50871463158949,-2.9687264888735507
2023-12-07 14:03:45.571088,-8.717495388077182,-2.659071993526112,-1.795065088057279,-3.8572762640794194
2023-12-07 14:03:45.590482,-7.541104270245683,-1.5670459808673598,-2.916019548929506,-4.241450147605767
2023-12-07 14:03:45.600160,-12.294289293798482,-2.8579382328687193,-3.22689740873762,-9.5626560456931
2023-12-07 14:03:45.602233,-8.663734871651904,-3.3645855276811663,0.29447639831066674,-4.957405555787201
2023-12-07 14:03:45.604398,-19.86079222889624,-8.603389391442562,-0.5370214545436495,-1.7482587264082339
2023-12-07 14:03:45.609554,-28.74062686168412,-10.42509982393717,-3.71315862385109,-7.681864091586087
2023-12-07 14:03:45.613732,-9.74063052184692,-0.8854787504282171,-6.276219435470165,-5.719052354524094
2023-12-07 14:03:45.621322,1.292157564035329,4.553411956385787,-8.888322509313877,-0.7700689040544091
2023-12-07 14:03:45.632527,-9.708831937381866,0.195782740766049,-10.347721769610212,-1.1206785572997744
2023-12-07 14:03:45.637833,-13.827247417872048,-2.3567778747878205,-9.357292107100383,0.5875630256394185
2023-12-07 14:03:45.647945,-5.9025146024060176,-0.973586448686898,-4.69016582010113,2.205661449791803
2023-12-07 14:03:45.658485,3.4598375108316546,0.8486428134328916,-0.8055755887566314,7.458850946198519
2023-12-07 14:03:45.667748,15.890409606994817,3.7844470716552703,0.4033788155092269,22.1051040912007
2023-12-07 14:03:45.681594,16.07413388834801,2.4772869277483185,1.6206533723968197,27.825095059716176
2023-12-07 14:03:45.706401,1.6168160458461474,-2.394786096574021,2.220621964010369,14.879943157809775
2023-12-07 14:03:45.707409,-0.38179642793191787,-1.364814125183016,2.0682823785366145,2.441372902806436
2023-12-07 14:03:45.710424,4.15054929326162,1.5085932357582172,-0.3738265041837646,3.7731097021706956
2023-12-07 14:03:45.717479,12.010611089404067,4.481128632549891,-3.090793721764355,15.05261202780951
2023-12-07 14:03:45.723998,25.342870441284244,7.128012080393225,-0.02457811520681852,28.62616370882263
2023-12-07 14:03:45.733021,5.227434171297296,-3.5247660664612948,4.645960300844866,26.171683928540936
2023-12-07 14:03:45.738386,-24.796535995207336,-14.253340995128525,6.579018103008165,2.6697887561279745
2023-12-07 14:03:45.743414,-10.734862501801182,-5.823407320793487,6.373741286548857,-10.528058617645092
2023-12-07 14:03:45.755713,5.422672619766933,2.5132395453282235,0.9332276924184136,-2.7522181954450042
2023-12-07 14:03:45.767780,4.119796763980481,2.7768692961273223,-2.7487660849220146,1.701264668181507
2023-12-07 14:03:45.775565,14.229071766674652,6.972169885430984,0.4800290564907261,-4.891306214247211
2023-12-07 14:03:45.781646,15.368793162216473,9.24386401737031,-0.9770367218684652,-12.429123788902547
2023-12-07 14:03:45.811064,10.300432481326967,9.172929081745048,-6.27951334704627,-12.423969022926904
2023-12-07 14:03:45.822323,14.225372690517393,10.028001108982494,-7.846979298807271,-2.403759948753752
2023-12-07 14:03:45.823351,12.81833799753946,6.389950143173685,-7.2538558260684685,15.46222138254396
2023-12-07 14:03:45.824355,13.196330986135456,3.4104279369686856,-1.4281761720612918,20.2018959969476
2023-12-07 14:03:45.826514,6.003717574609646,1.0906569502210015,4.835222459507965,-2.320262942036527
2023-12-07 14:03:45.830809,-5.863704103889881,-2.6474274665514326,5.131348082794473,-13.155840710092779
2023-12-07 14:03:45.838054,6.686359253918482,0.7755367473604998,5.590160211211243,-0.33441558055634474
2023-12-07 14:03:45.845125,18.58005000662614,5.519192772147042,4.64674846568348,5.770353755577261
2023-12-07 14:03:45.866140,13.77087049746953,4.202907894570857,0.25048616560564735,12.1245815566887
2023-12-07 14:03:45.872196,6.5806614452158385,1.8323231208241462,-1.5458672554745139,11.527416637688727
2023-12-07 14:03:45.878227,-5.103823149265454,-0.8369535758541408,-1.0332359247533678,-6.184872798791946
2023-12-07 14:03:45.891636,-4.030130523288417,0.4575534383625925,-3.018422219746134,-6.173869322966594
2023-12-07 14:03:45.932357,16.202227277554787,7.317926376325886,-6.978089437996719,10.61171862480494
2023-12-07 14:03:45.932357,26.95508955297149,10.414557348596581,-6.561394503170863,16.96956506849142
2023-12-07 14:03:45.935527,22.355160845225427,7.613599397573805,-1.377485324454199,12.513502783811616
2023-12-07 14:03:45.937720,15.920578136801184,4.103984143270013,5.824965374076737,4.488853062944729
2023-12-07 14:03:45.942863,13.788253124803077,-0.04011772984781692,14.27995550015476,3.338036995948582
2023-12-07 14:03:45.953195,6.598728193684576,-5.825548517143773,14.80903879539087,12.941463312042709
2023-12-07 14:03:45.968769,-0.5504046147285526,-6.916466954472962,6.662630218310217,18.1833058077736
2023-12-07 14:03:45.977955,6.572265377324227,1.4295205907227322,0.27428295551220855,6.582232720421126
2023-12-07 14:03:45.984072,10.460866968591453,8.538004923781278,-4.2654759482463716,-11.079961608302844
2023-12-07 14:03:45.999307,5.851250222935599,6.725540858301603,-5.1210571898152875,-12.634895129901379
