Timestamp,TP9,AF7,AF8,TP10
2023-12-11 13:29:34.378691,0.7216993353197838,-0.2277537965511552,0.10677951659252843,0.20162116912860334
2023-12-11 13:29:34.378691,0.7830901215934809,0.5062845259952147,0.09037907168368572,0.016356062133883423
2023-12-11 13:29:34.380736,1.8059804101911427,-0.36951757086847026,0.059604475978439334,0.40233950746754243
2023-12-11 13:29:34.381677,2.282908921861432,-1.218361260226545,-0.16712616723787205,0.18085402554485944
2023-12-11 13:29:34.383684,2.406636844284775,-1.6454460858256892,-0.012048496900752123,0.6718644335902201
2023-12-11 13:29:34.400671,1.9435818104947435,-1.6810690137222393,0.12611047410544887,0.8848151357061362
2023-12-11 13:29:34.401671,0.36094148673453436,-1.0801117483001699,-0.20794041730680196,-0.4420773560264687
2023-12-11 13:29:34.403091,1.3931008722361324,-0.5685257044738303,-0.30221223763333044,-0.5101584863842622
2023-12-11 13:29:34.404104,4.163988411217763,-0.2845860157792527,-0.10918835821135571,0.5965062602089233
2023-12-11 13:29:34.405127,3.1619574165563358,-0.21919691607710162,0.19992264373342306,1.049575842565741
2023-12-11 13:29:34.406132,1.3802267006426563,-0.006618813319451533,0.3894389389388156,0.9875856579051703
2023-12-11 13:29:34.406132,1.4861398569144677,0.31657788508456985,-0.0011459428612472272,0.02570457302658982
2023-12-11 13:29:34.425980,0.7937166017067396,-0.2346013976003688,-0.32712462186592245,-0.7969368964987336
2023-12-11 13:29:34.426981,1.6388064549408545,-0.8806539146229538,0.02505204842645924,0.39219980642061414
2023-12-11 13:29:34.426981,3.4763578218786058,-1.205975898964373,0.44781146275589423,1.9325760875016527
2023-12-11 13:29:34.428148,2.8469900455448953,-1.6939853395239082,0.544908390872327,2.106399302601205
2023-12-11 13:29:34.428780,2.641548121930229,-1.1732809701197815,0.6361753624341687,2.1526251528087395
2023-12-11 13:29:34.429410,3.4600341261901977,-0.5627433564349941,0.41921058215850615,1.7192388673504453
2023-12-11 13:29:34.429410,3.7267380996396295,-1.6506504775241788,-0.11545356778707246,0.7730007726633167
2023-12-11 13:29:34.430425,2.6515269621104274,-2.827431096282524,-0.05638838258531167,0.8948814005479002
2023-12-11 13:29:34.430425,-0.7507177782686156,-2.878809977357611,-0.04212592657449507,0.060983745243942476
2023-12-11 13:29:34.431426,-1.3212030338434526,-1.8998726393638132,-0.3000715993379286,-0.9091206121363603
2023-12-11 13:29:34.432432,1.6108908664464412,-0.659550162429892,0.19672265654208415,0.741301593064797
2023-12-11 13:29:34.432432,2.80971551599263,-1.1463856651529474,0.22456821064857801,1.2245735369807378
2023-12-11 13:29:34.433453,3.3796754799280095,-2.39909337494185,-0.4122166568191056,0.15329675837497858
2023-12-11 13:29:34.433453,1.8307061877430317,-2.267294732792461,-0.5968942190058362,-0.7097614128617297
2023-12-11 13:29:34.434427,-0.7792500288929526,-1.4043634446243864,-1.0738900846565713,-2.6957654741824313
2023-12-11 13:29:34.434427,1.6415657710774227,-0.5899974202740864,-0.8464325983006616,-1.715915171077585
2023-12-11 13:29:34.435427,3.6108501084109883,-0.4267905792093613,-0.30076721345552193,0.039236666554094086
2023-12-11 13:29:34.435427,0.8296559824118099,-1.5802869078538353,-1.757578187134301,-3.8466650069962203
2023-12-11 13:29:34.436423,-1.0208352506250393,-2.7544980059827946,-1.7511727934687247,-4.049284496334834
2023-12-11 13:29:34.440427,0.572493278540805,-2.2109411009527777,0.5115105958425609,1.5591078017018434
2023-12-11 13:29:34.440427,3.26292467313411,-0.8684097246689704,0.022452966001598126,0.8080265488851968
2023-12-11 13:29:34.441426,4.738300349206696,-0.3716564927692869,-0.4400762087649774,-0.007293243225041321
2023-12-11 13:29:34.442425,4.1592992272842215,-0.26854733967076355,1.7143850970139114,4.883133858045832
2023-12-11 13:29:34.442425,0.37560089737862673,-0.05793567019064236,1.282289254918543,2.843955962000211
2023-12-11 13:29:34.445423,-2.4639844142704215,0.44826746191065414,-0.5626797679468513,-2.3366891772356766
2023-12-11 13:29:34.446426,0.5556656431503492,1.3821822697438497,-0.5391224740942209,-1.7076304400716158
2023-12-11 13:29:34.446426,4.423941050271036,2.418217856173088,-0.4090278458333187,-0.6315899262226256
2023-12-11 13:29:34.447426,4.526077011836914,3.1206626100474533,0.8366542794263927,2.1666802779552317
2023-12-11 13:29:34.447426,-0.035623950405206745,2.186901045962368,2.2728221900831893,4.570008616215561
2023-12-11 13:29:34.448423,-5.74112514929213,0.4565201332213231,1.4771278869244633,1.609919211567062
2023-12-11 13:29:34.448423,-5.792462276758214,-0.005885612225959209,0.06388836715465196,-1.621272183692862
2023-12-11 13:29:34.449429,-4.928385686909186,0.35194725286712,-1.2992842592664637,-4.679988616287832
2023-12-11 13:29:34.449429,-6.612202817688095,1.057469668881742,-1.461477045497694,-5.65197938022085
2023-12-11 13:29:34.450424,-2.819887802287713,2.0169172826632775,-0.545690539235893,-2.7323578298074884
2023-12-11 13:29:34.450424,0.9170455387071293,2.7282497495507934,-0.5579656584033699,-1.952811145476201
2023-12-11 13:29:34.469017,-8.098264077935447,2.083133434127398,-0.9094991979296801,-4.964727703787245
2023-12-11 13:29:34.476014,-19.1760235597813,0.05739991489200519,-2.321153294038427,-10.694728827306335
2023-12-11 13:29:34.476014,-19.48928228376577,-1.58193039658523,-3.3947600900976314,-12.9347957215938
2023-12-11 13:29:34.477015,-17.60276732501576,-2.7311962122891087,-1.779540701855597,-8.396940630615411
2023-12-11 13:29:34.478017,-16.354935098245747,-2.4525096009170797,-0.6680953700663765,-5.524151690225295
2023-12-11 13:29:34.478017,-11.921082249463169,-1.4471961747667244,-1.2723462383530124,-6.02064238214318
2023-12-11 13:29:34.479015,-9.040837873253864,-2.6802674355454212,-2.0802041674542378,-6.901139453299826
2023-12-11 13:29:34.480015,-6.345548333374504,-3.3994404823250544,-2.323295205163044,-6.616179739994893
2023-12-11 13:29:34.480015,-5.237410840746492,-3.936984678453509,-1.7314200197339238,-4.819537887600697
2023-12-11 13:29:34.481014,-13.898703117876137,-7.176223520373938,-2.143943764532133,-7.308646855459005
2023-12-11 13:29:34.485345,-25.17024926466362,-6.988819128735877,-3.972086119971632,-14.5575628636199
2023-12-11 13:29:34.486346,-25.856964614241203,-2.2890699275417656,-5.482733516735483,-19.325190640041804
2023-12-11 13:29:34.487348,-16.713132586171998,-0.8642826785113551,-4.56418367353951,-15.119446512493887
2023-12-11 13:29:34.490346,-11.724654378551222,-3.4940604989048807,-1.9639786583664138,-7.137684032941575
2023-12-11 13:29:34.491345,-15.522056765676526,-5.1086774822573435,-1.7745036256799143,-7.315425399359474
2023-12-11 13:29:34.491345,-14.853910307523066,-2.932545721401205,-2.819607723976981,-10.080075391689425
2023-12-11 13:29:34.492345,-8.939531784115491,1.6105984789470185,-4.039217849241723,-12.42363495409518
2023-12-11 13:29:34.492345,-13.179207204644182,1.229921780475632,-6.983106799029907,-20.351654974805424
2023-12-11 13:29:34.493347,-29.52930741825827,-5.9116175430794655,-7.36875558563633,-23.899743138987485
2023-12-11 13:29:34.493347,-36.34834839099629,-6.98555059743675,-6.227463934048564,-22.741389350326585
2023-12-11 13:29:34.494345,-25.58924342431103,-3.48612321204541,-6.271845433674309,-20.84052552162912
2023-12-11 13:29:34.494345,-18.918200371044783,-8.54436710558738,-3.4980761169432206,-11.478282254217971
2023-12-11 13:29:34.495345,-15.986441969564577,-9.508198383236172,-2.103749314909563,-7.23046434875322
2023-12-11 13:29:34.495345,-11.336079725952048,-0.9747093592768049,-2.986694208833029,-9.993415569097218
2023-12-11 13:29:34.496345,-13.72621164133317,4.229305941633232,-1.8714339488039395,-9.142569702416907
2023-12-11 13:29:34.499345,-10.883465131504392,8.694986236002011,-5.075865594179465,-16.926459521337353
2023-12-11 13:29:34.500408,-10.629849173917505,9.221087059233659,-8.180981325662536,-24.273278465870437
2023-12-11 13:29:34.500408,-15.139697227342317,5.576139773140308,-3.016302590891701,-12.494785752339624
2023-12-11 13:29:34.501424,-0.3792804155159848,5.995360490042014,1.594729557642397,2.061308796055821
2023-12-11 13:29:34.501424,5.335285753484682,2.6423736459387053,2.7127739910707103,6.90811152057248
2023-12-11 13:29:34.502422,-9.815648496107388,2.8991799452095908,3.9716506141019843,5.895287008476655
2023-12-11 13:29:34.502422,-8.761471969341937,13.51887414827316,2.6312861734226987,0.6662364931536843
2023-12-11 13:29:34.503422,3.7980115988573044,15.484412320640322,-0.5878137620326326,-4.087861696538598
2023-12-11 13:29:34.503422,8.330920075362522,9.200038698286985,0.05903846279044503,-0.004243522687638198
2023-12-11 13:29:34.504425,4.414205098923342,10.26620586693371,3.6665253738460404,7.2248753177564575
2023-12-11 13:29:34.504425,-3.8173900180183287,15.05529769250704,2.2754560751350197,0.7690536829584615
2023-12-11 13:29:34.528412,-5.483322689561198,12.734470800350767,-0.7390506784841839,-6.230225361997197
2023-12-11 13:29:34.529411,4.364584440537217,10.821753113039705,1.9164707505861542,2.9781434131017344
2023-12-11 13:29:34.530411,16.61185387726049,13.936249653876294,4.460262420833456,11.430313654471927
2023-12-11 13:29:34.531409,19.02611018612907,9.697680140104007,5.9478651815914345,16.488918137184495
2023-12-11 13:29:34.532413,5.693207698971319,7.516281169533349,7.873608286989171,18.05282531230356
2023-12-11 13:29:34.533411,-16.99316581866714,14.59267361427353,4.796808344457231,3.394600956101533
2023-12-11 13:29:34.533411,-12.776281209670092,15.349470958065337,2.2781899854408514,-1.6012872808756173
2023-12-11 13:29:34.534409,22.35363654254443,12.3546311861509,6.2138539587182136,17.38680859718205
2023-12-11 13:29:34.535408,24.213247480246082,11.345540073204749,9.828292564836042,26.58429574414963
2023-12-11 13:29:34.536408,-2.912752905326055,13.591957858342155,7.759174628641633,14.216689948431972
2023-12-11 13:29:34.537407,-3.3521006182345885,20.43939859897409,0.40421241981506556,-4.695665053369226
2023-12-11 13:29:34.537407,7.81928877390495,19.933712639643538,-2.7179512397715384,-9.03332220626839
2023-12-11 13:29:34.538407,16.413089965866575,16.02733898912294,5.821382181219547,14.118163415143139
2023-12-11 13:29:34.575408,22.743118986398667,17.097975692009804,12.82418056157514,31.971805634871757
2023-12-11 13:29:34.576407,11.1108144256442,16.930575320193,8.588075686922034,19.04997117161683
2023-12-11 13:29:34.577411,4.148517942984462,20.06482076935137,2.505003101090015,2.2634115820907086
2023-12-11 13:29:34.577411,10.863456806519993,21.766430597114123,0.06764842296675927,-2.105478056467565
2023-12-11 13:29:34.578408,6.52931404421107,13.661044786157403,-0.14177140790068973,-1.9216280902365737
2023-12-11 13:29:34.579407,5.310367280193116,9.77287566494945,2.8454037068786358,5.644189693581197
2023-12-11 13:29:34.579407,14.758474439049868,9.7400664013996,6.763886111459735,17.300372604465664
2023-12-11 13:29:34.580408,6.541554192929047,5.392570706978338,5.9728753813037265,14.282005245212474
2023-12-11 13:29:34.581406,-7.034976546693157,9.336202516784867,-0.003626835205299905,-4.142379848879208
2023-12-11 13:29:34.581406,3.612164760579041,14.838238538334165,-3.0339667304308966,-9.730583145090334
2023-12-11 13:29:34.582409,19.538412463544844,1.8275612934790386,3.9084823665297805,13.57962197715927
2023-12-11 13:29:34.583407,16.670181261984524,-9.21606016067898,11.09077823165054,32.16181662412474
2023-12-11 13:29:34.764839,5.962114833073155,4.07996914124296,3.4866827091236603,8.582403206027594
2023-12-11 13:29:34.836838,12.924809582623231,17.78003311930988,-8.743768910300089,-21.3918555981032
2023-12-11 13:29:34.840838,29.87202742459016,10.742393727545767,-4.969822576838969,-6.586237968067924
2023-12-11 13:29:34.842849,12.32506472658341,-3.5520779706192034,5.289379530880032,16.15352934510781
2023-12-11 13:29:34.844842,-22.126605822556456,-10.011980835109792,3.4790316294328862,4.429588441394813
2023-12-11 13:29:34.856840,-14.408623991617139,-7.295167088933492,0.12576971259082417,-2.0573436443013464
2023-12-11 13:29:34.874843,8.406465467627253,-1.689482785639608,3.6267675516760396,10.822325770360992
2023-12-11 13:29:34.877843,5.764556366767678,-3.4459080079242406,2.0092266821682165,6.728123901370079
2023-12-11 13:29:34.878839,1.8195293763494476,-4.373625457853707,-2.753727096608681,-5.277333820975452
2023-12-11 13:29:34.881841,4.087655969879677,11.043904920853167,-2.1526816426573996,-6.6939727890165575
2023-12-11 13:29:34.882839,7.176434905033813,19.997467540955917,0.13896291634695146,-2.494254827491943
2023-12-11 13:29:34.883839,13.21636589955602,9.543554671692847,0.16131986288488406,1.4345390144590684
2023-12-11 13:29:34.893838,12.941952448836439,11.684524670057698,-4.580693270659066,-10.25313639160096
2023-12-11 13:29:34.894841,14.385362540611892,25.90390949362974,-8.373634686057208,-21.94236207550149
2023-12-11 13:29:34.896840,9.317889971527274,26.907364080801038,-5.409252386171681,-16.508204066202712
2023-12-11 13:29:34.896840,-6.3152629277950165,21.96397311736023,-1.7250011750690453,-10.795076846303479
2023-12-11 13:29:34.898839,-1.734971073972697,19.68815959641896,1.7667114595306228,-0.9027941795026314
2023-12-11 13:29:34.899839,6.735866049330758,17.213049598470718,1.3333923990317098,0.8158877162104974
2023-12-11 13:29:34.900839,7.119544765550048,16.697027361801215,-4.054887342087271,-11.631865426887904
2023-12-11 13:29:34.901841,7.858483215507465,14.331647611777871,-2.3816003528431007,-6.9851396675964255
2023-12-11 13:29:34.902839,-11.746493620685586,10.718538027027895,-1.7813397173980758,-4.4795002915232
2023-12-11 13:29:34.903840,-23.456339112202652,10.721936796250297,-3.1814947804213802,-12.995424844411668
2023-12-11 13:29:34.905839,-0.9607230096142165,11.51142941019783,4.494111845925145,8.4610181678005
2023-12-11 13:29:34.906845,0.7321642342126905,6.261052275571111,5.83473868563924,14.975795500834876
2023-12-11 13:29:34.915838,-11.70993099237019,5.171533475888235,-2.7468501901799502,-5.2949041750034525
2023-12-11 13:29:34.917845,-14.351718249881149,6.428359788384939,-4.89692357246774,-11.551060404565558
2023-12-11 13:29:34.918839,-7.9480324511903735,3.8041107904637768,-5.129881120738249,-12.00231274630403
2023-12-11 13:29:34.928842,10.580500485450353,-1.8881898853574315,-0.8048458129873373,2.163251538827681
2023-12-11 13:29:34.929839,12.463677774591236,-11.996438215487707,6.003989672700912,21.74127128679831
2023-12-11 13:29:34.930838,10.178876936121325,-11.947054858094555,2.7169379785155274,16.407746839230228
2023-12-11 13:29:34.930838,23.554916038825194,0.32475434334193704,1.4430885580065131,13.176064017213116
2023-12-11 13:29:34.931845,4.5998951222784665,4.0599519048691,-0.20398495553779047,1.3794578566855853
2023-12-11 13:29:34.932843,-20.806053204328418,3.2096880613345196,-9.371239848209385,-25.082971815080402
2023-12-11 13:29:34.933841,-2.354539950830463,3.267479000593081,-5.183793809897662,-10.195253359672245
2023-12-11 13:29:34.934839,1.8475563485095403,-4.659845789496801,5.096294480079579,16.849825058826525
2023-12-11 13:29:34.935841,-19.913124728770935,-11.53815735778549,1.8649482808325983,7.063100417095346
2023-12-11 13:29:34.936838,-7.867742531767504,-7.804177349353983,-2.324450924359028,-3.3671318986067322
2023-12-11 13:29:34.937838,22.900709139449127,-0.6910176855933228,0.924550136103045,5.815191143576088
2023-12-11 13:29:34.937838,24.714252185922494,-0.7899179668647791,3.9945191585642914,15.13703509466713
2023-12-11 13:29:34.937838,5.803507236831099,-6.8386601012643835,0.7525955081984095,8.870128402466761
2023-12-11 13:29:34.938838,1.6452197604632917,-7.15878307018625,-3.895615300542848,-2.3462009064448415
2023-12-11 13:29:34.938838,11.079741842396956,-5.190314948022351,-2.7444991899721627,-0.5499798357300516
2023-12-11 13:29:34.939837,16.64843371991589,-8.228455238889364,-1.5813039579885853,3.285334014893814
2023-12-11 13:29:34.939837,20.202032808935225,-11.031104251161006,0.5944533700742155,10.498019485295588
2023-12-11 13:29:34.939837,8.69002808617661,-16.557052174254704,6.420394860442471,23.80613895666186
2023-12-11 13:29:34.940836,-11.396390417496848,-22.81541098460268,6.393534840905439,22.4945019163669
2023-12-11 13:29:34.940836,-11.351381884100682,-19.486039362601613,2.9673243672391956,12.917028912259141
2023-12-11 13:29:34.941838,-4.264395125309366,-16.409701248608112,2.284131896210066,9.502533523587378
2023-12-11 13:29:34.945837,-2.3578699162073575,-21.038587990915747,3.9489580464341976,14.7626525547231
2023-12-11 13:29:34.945837,-1.8689630458356419,-23.03993175874707,6.0986570323482,22.994355194587666
2023-12-11 13:29:34.946837,-2.4707404103035193,-17.844595972237546,1.1125883146456106,11.990560139376848
2023-12-11 13:29:34.946837,-3.744397986287315,-11.638703735664652,-2.829397152693481,-1.8890212920722764
2023-12-11 13:29:34.946837,-10.947093825888174,-16.30804011018966,4.685613722478237,10.297314460984214
2023-12-11 13:29:34.950837,1.1179927768379465,-24.986781917785,9.69943608974085,26.886342456054734
2023-12-11 13:29:34.950837,23.491728678301175,-17.93450675303853,4.816200132819696,24.46956241441591
2023-12-11 13:29:34.951837,7.808389827656038,-8.176912169193994,-3.34617166515538,3.714622954203356
2023-12-11 13:29:34.951837,-8.296595421151194,-10.330130417121829,-9.643059323089526,-15.681400113800068
2023-12-11 13:29:34.952837,-0.2792488038971464,-13.852867011172311,-10.123671230087812,-14.479170405023293
2023-12-11 13:29:34.952837,-2.9830077168355897,-18.48701665468351,-4.850238203521966,-1.6996009210944993
2023-12-11 13:29:34.953837,-4.931410094709771,-22.061215091241664,0.4501395435858618,7.078744348575659
2023-12-11 13:29:34.956838,-3.9267900235536155,-16.955706307959357,-3.8313360796361784,-2.0552817696796035
2023-12-11 13:29:34.956838,-5.387381537248416,-11.471297701767647,-11.845982198748207,-18.812960320790868
2023-12-11 13:29:34.958837,3.2828542595833765,-11.194224318469292,-11.015132373631948,-20.631479567784307
2023-12-11 13:29:34.958837,7.881033965580715,-14.374967552515043,-8.622868679069832,-18.370053750533017
2023-12-11 13:29:34.959837,6.021483266757044,-19.54930519187127,-8.787496212562838,-16.0345868919174
2023-12-11 13:29:34.960839,2.6779573955977938,-21.58430244200091,-7.551812519676349,-9.43303259951312
2023-12-11 13:29:34.960839,2.971733940032198,-17.152557192745572,-5.319842496324133,-4.2188240288189975
2023-12-11 13:29:34.961837,9.641142139437155,-12.19506246548437,-3.5927480050872362,-4.159922590477357
2023-12-11 13:29:34.961837,2.6280257221940944,-15.699953958451841,-6.877582041103697,-13.858069797420185
2023-12-11 13:29:34.962837,-2.1031023460132103,-20.863376936839643,-8.739759352771504,-13.975897047553286
2023-12-11 13:29:34.962837,1.7879805849865222,-22.12596774010255,-3.1252272956577367,-2.8604732799422217
2023-12-11 13:29:34.963838,-10.231344606734517,-28.641662687023178,3.2000783310525005,0.8856318758201266
2023-12-11 13:29:34.966837,-12.651663486725608,-28.601771768131037,5.370124157763439,1.38908340732231
2023-12-11 13:29:34.967837,-0.3135400036152977,-15.287561418345465,-0.7557688799554546,-10.574675063171249
2023-12-11 13:29:34.967837,-0.32420060210239376,-14.053624675422233,-5.654206102840586,-15.557226821598555
2023-12-11 13:29:34.967837,-0.6492654461789094,-21.136697308202226,-1.9911230073245652,4.749063423117897
2023-12-11 13:29:34.968838,11.59265445750181,-15.045563783221928,-4.098290907239691,6.975196722009358
2023-12-11 13:29:34.968838,24.707790263211603,-7.918578995182405,-6.6156879169161735,-1.8988920492859167
2023-12-11 13:29:34.969838,17.525880769730463,-10.477007723416751,0.6060720025629255,6.078146965830046
2023-12-11 13:29:34.972837,2.8550451733124347,-14.359701335370127,2.6173107402536138,7.4419173750156995
2023-12-11 13:29:34.973837,6.238210966830646,-14.755082005741807,-1.7154823652885092,3.60352944959693
2023-12-11 13:29:34.973837,-2.686807877346578,-14.638294131813868,-3.4960008994021905,1.9259146955503155
2023-12-11 13:29:34.974838,-25.384171750651532,-18.075453305841396,-8.052057396805768,-12.846749033984008
2023-12-11 13:29:34.974838,-16.85701861425074,-18.99372675695911,-14.786338047402483,-28.062787155808056
2023-12-11 13:29:34.978837,5.517583721077307,-14.197880794959175,-14.527562191503383,-15.35577908480743
2023-12-11 13:29:34.979837,9.101476798223297,-11.81267060678446,-5.389702007406934,14.381569707145253
2023-12-11 13:29:34.979837,-5.248354382797495,-12.206333810561103,2.52574553096684,18.580347366726574
2023-12-11 13:29:34.980837,-30.416620933435336,-14.480047888174184,1.2017688177531358,-3.7901731656087687
2023-12-11 13:29:34.980837,-23.01542332207556,-17.54151136179504,-1.0268558733442037,-19.49469745942226
2023-12-11 13:29:34.980837,18.069525419434704,-14.704867327238551,-1.9754283705393918,-21.967427979765233
2023-12-11 13:29:34.981837,13.951127903657497,-13.294793162959762,-6.649687650443033,-16.208195630498917
2023-12-11 13:29:34.981837,-23.79662065585505,-18.753688212167603,-5.726417318376132,-8.91086505721729
2023-12-11 13:29:34.982837,-31.832884285368905,-20.279771356750725,-1.5606463327903297,-13.752738150913057
2023-12-11 13:29:34.982837,-27.265405387807604,-16.5847046407709,-6.891233283565648,-26.8594031327074
2023-12-11 13:29:34.983839,-16.16727740949494,-14.088048274065752,-10.800227977356327,-27.8803939215899
2023-12-11 13:29:34.983839,-3.3845488159478765,-14.219168005408669,-4.04368187220897,-10.363339079770833
2023-12-11 13:29:35.033851,-14.290560296598198,-15.623519273997811,-0.25243090630364695,1.2972671841133208
2023-12-11 13:29:35.034844,-14.813835012971168,-15.124795935181975,-6.9037252315651045,-14.658127980558007
2023-12-11 13:29:35.036846,-4.648134696398291,-13.289046310498527,-12.18776627144752,-34.592237692066014
2023-12-11 13:29:35.045847,-12.936773724900348,-14.681049682023794,-7.217284878904481,-28.057720311861907
2023-12-11 13:29:35.048844,-3.5815798538083046,-16.9583812505079,-0.7683285825181885,-11.252114120684912
2023-12-11 13:29:35.049844,10.002731339683164,-10.594104226733139,-1.6645702555394208,-5.780893302142145
2023-12-11 13:29:35.051846,-9.245972895333107,-2.075168165524805,-7.487050936717729,-13.480581697597895
2023-12-11 13:29:35.052845,-16.372192107953193,-2.543629768425351,-10.905410205826955,-32.572206743490625
2023-12-11 13:29:35.053842,-2.0159767312206243,-0.2802542224019846,-5.040837267789154,-28.78827402451868
2023-12-11 13:29:35.129878,-0.846003964219366,4.845718744554813,6.267211883451863,9.56719961851716
2023-12-11 13:29:35.130843,-6.05872928518931,3.210562923459732,13.499812047242301,29.277343131287953
2023-12-11 13:29:35.131838,-10.371017299437966,5.774195031164822,14.28180734244439,16.441430676791313
2023-12-11 13:29:35.131838,-11.424750853812249,12.452903066503636,12.05161914922898,5.872297926291021
2023-12-11 13:29:35.132837,-0.7405853211564845,16.030032804776145,11.416749758073612,4.989128786438555
2023-12-11 13:29:35.132837,13.8836534009689,16.915722362477357,11.747523519240842,3.827556238041542
2023-12-11 13:29:35.133839,17.616290643407677,11.677497795063221,11.105733888284325,13.337005458331829
2023-12-11 13:29:35.133839,-0.02590002234266257,9.708324101287332,10.53975038530938,29.034399318415254
2023-12-11 13:29:35.134840,-26.113068890876136,11.60878949007455,9.867159173530938,6.40697831705866
2023-12-11 13:29:35.134840,-30.43456588653555,3.258426087334088,10.484921258451493,-28.06743055023071
2023-12-11 13:29:35.135837,-11.445192632605993,-3.173002389183095,11.673046688974667,-8.486747793921536
2023-12-11 13:29:35.139837,8.114823753842376,1.814885408548082,13.376478708081413,22.51470649007664
2023-12-11 13:29:35.146851,13.733772216287301,4.774519002256146,16.942775203993317,13.432700259805747
2023-12-11 13:29:35.147866,0.8831179129037489,6.419248440017949,12.983281335967384,-14.301703207213187
2023-12-11 13:29:35.148840,-16.142982902817828,11.291607154816544,5.630304976912954,-28.977471918668016
2023-12-11 13:29:35.148840,-16.23678926721388,11.21714633288896,11.138097225543254,-6.222325732130052
2023-12-11 13:29:35.149838,-2.8629722715095385,9.327968767782323,17.957903727951287,28.69425875713353
2023-12-11 13:29:35.149838,6.472082746383574,12.87697352855808,16.43538129429953,34.207738475412846
2023-12-11 13:29:35.150838,-4.460028585562803,13.140501353370558,15.812334658919827,17.301209233038477
2023-12-11 13:29:35.150838,-19.862699382841317,8.91595924323541,12.564382242942312,-7.999845723068005
2023-12-11 13:29:35.151839,-6.652557351404095,8.375293944492359,8.158402601514982,-17.516935515954785
2023-12-11 13:29:35.152837,12.315230308371484,7.846713867212077,10.156182359304061,5.754440659990278
2023-12-11 13:29:35.152837,8.851300001208138,10.18729386949255,9.968730312482766,21.608386152425826
2023-12-11 13:29:35.153840,-5.9712556475973235,16.002511344294565,4.8785011611876135,2.383406323122245
2023-12-11 13:29:35.173845,-23.005768630398602,11.527004899375065,4.362011093270319,-17.68145380345114
2023-12-11 13:29:35.174847,-20.29330829307799,6.333038907042379,9.744857636004289,-10.566714310687637
2023-12-11 13:29:35.178849,-2.3317998121276315,12.299882461324902,12.368310603325707,4.853465076884522
2023-12-11 13:29:35.179849,-6.950467568892821,15.378336743443336,10.031851175367335,9.93695343385689
2023-12-11 13:29:35.181850,-15.17908652924423,14.070792875596092,10.516443841847382,3.9590325925478274
2023-12-11 13:29:35.182844,-2.906840125393935,16.818557201503786,12.108381245836123,-12.946976733041371
2023-12-11 13:29:35.184846,2.4355563681632924,18.251640348533094,8.394617170594909,-18.03290923280339
2023-12-11 13:29:35.187852,-5.164196827207331,13.705632155014367,4.332880814607878,2.659830416968182
2023-12-11 13:29:35.189849,-10.38164726837689,9.050015377505346,5.778234486483345,14.23603411278361
2023-12-11 13:29:35.191845,-15.547887908216243,9.705588269825663,10.379286230988239,-1.4793673353857952
2023-12-11 13:29:35.194846,-19.679437493555934,9.800606017607775,11.227385855631,-16.12001977780989
2023-12-11 13:29:35.195844,-17.66044766511059,5.0866459559992165,8.065775671077185,-14.508380148204388
2023-12-11 13:29:35.205842,-3.3067161963862284,1.562019439587617,6.596868289413442,-2.877008889789511
2023-12-11 13:29:35.225844,15.94981114252373,2.6688227453753166,6.2575629603002545,13.66172102807623
2023-12-11 13:29:35.226844,-0.7101239352898608,5.130604383087096,6.045881638001036,10.351807155724272
2023-12-11 13:29:35.227842,-37.062326612352,4.811751867446125,6.846996231720632,-16.778093270405833
2023-12-11 13:29:35.228840,-27.41068770088322,3.4128301342144707,7.847144147078619,-21.5755853593007
2023-12-11 13:29:35.229841,-0.23589193571097988,2.071686715479727,7.728672213881426,-0.6170324586632362
2023-12-11 13:29:35.230844,0.9796650712429426,-0.7361323980912772,4.284594669981826,10.823724570382405
2023-12-11 13:29:35.231840,-2.9915221466987636,-0.36251721436453244,1.5866344980165423,7.070024130874364
2023-12-11 13:29:35.232840,-13.732832196449076,0.5837249598245975,3.373497780018458,-11.039331294879235
2023-12-11 13:29:35.233840,-17.450077605717926,-1.859305400498932,4.757661113107389,-24.44050278371136
2023-12-11 13:29:35.234845,-4.671412093534897,0.19401678840459202,4.784757543006959,-14.089139372299831
2023-12-11 13:29:35.235841,-2.3719059640528606,6.26872438546349,2.548327294016332,5.703456589007419
2023-12-11 13:29:35.270854,1.0428939334412302,8.802711236688877,-2.7609482402606367,14.119147126838282
2023-12-11 13:29:35.272854,-0.9086588552529232,9.202862241727557,-5.124751013617539,-2.1773385686670714
2023-12-11 13:29:35.274854,-10.288711058317451,7.566996267358607,-0.20433030922228576,-18.85715479397301
2023-12-11 13:29:35.275849,7.9489176493423965,5.604865710178592,8.075532310449649,-8.126717815525687
2023-12-11 13:29:35.277846,22.495166657195302,7.908432767630983,11.31895758800026,9.193417965874817
2023-12-11 13:29:35.279854,25.468987878446605,7.630079808050548,9.37922160095644,17.0838222352963
2023-12-11 13:29:35.281853,30.31873170594984,2.8089333695969545,7.663587024716255,9.686374366320992
2023-12-11 13:29:35.282849,1.4540146854084968,1.9710279853739894,5.826502651443284,-3.100343887103999
2023-12-11 13:29:35.285217,-13.831432974093971,2.3967098832102236,5.035667544850524,7.6329742509045655
2023-12-11 13:29:35.287271,9.62074782224391,3.1602369068375196,3.8321457448277436,17.129702625008488
2023-12-11 13:29:35.289266,8.229658839130982,8.31164971560946,-0.1808512687412128,-0.9761674059582084
2023-12-11 13:29:35.292266,-5.093395882103754,8.75824304289321,1.9696618192451267,-17.631437397298303
2023-12-11 13:29:35.303827,-9.62102376352661,4.634002972302781,8.02968980456971,-21.371511243532638
2023-12-11 13:29:35.304826,-10.752101746441731,5.873610980663973,5.155784667450415,-17.567353112285485
2023-12-11 13:29:35.305825,7.068140977162328,5.206333625254983,-0.4881727834471099,-0.45991159438264084
2023-12-11 13:29:35.322452,12.542534342326705,0.590754068454615,0.477027126057947,9.140492991392259
2023-12-11 13:29:35.322452,-11.282281585257655,0.7378965772801452,3.758220048786668,-12.937308032504724
2023-12-11 13:29:35.323450,-24.76583300409912,0.37854378469836925,3.1401821274262356,-39.8165552510928
2023-12-11 13:29:35.324450,-13.54318700776355,-0.3426789929675612,-1.1690154226448717,-35.23209367260273
2023-12-11 13:29:35.325452,-1.9357964473107208,3.889695786582221,-0.47287684410807174,-10.695171657623565
2023-12-11 13:29:35.325452,-4.959175933140511,3.786440375186851,4.686286699595603,0.4506092123585289
2023-12-11 13:29:35.326451,-6.934079030787859,-0.18950030121519906,2.061161159864313,-9.464327273725456
2023-12-11 13:29:35.327452,-7.224755248295982,-0.5270287208332244,-1.9522623162265293,-19.88979392273065
2023-12-11 13:29:35.328483,-12.636987746622319,-0.8494472452511955,3.562550859041079,-20.180615051052147
2023-12-11 13:29:35.334301,-2.9137928881900663,-2.353567148373873,8.94632970577108,-13.761862114356921
2023-12-11 13:29:35.335079,13.962188743724546,-5.788174631503014,12.351746588827401,1.8264023018230235
2023-12-11 13:29:35.336099,7.288025310448754,-8.025959964196087,16.72593007960043,5.433729534679769
2023-12-11 13:29:35.337098,-15.257946308476287,-1.3933953826590504,10.738660623726753,-17.663150132224242
2023-12-11 13:29:35.337098,-19.830217958000418,3.007398527981093,2.0216923555313135,-20.237544586956798
2023-12-11 13:29:35.338096,-2.2767824136405355,-4.7987255475643025,7.278399231048946,12.06950891011076
2023-12-11 13:29:35.339094,8.89597016718924,-7.789042739124489,13.890549309003406,28.600495842907748
2023-12-11 13:29:35.339094,14.830685739938247,3.7348695529494718,8.766948032782132,22.32692408173683
2023-12-11 13:29:35.340097,23.015308935754792,12.81289628033866,4.344762267320635,9.33793948342903
2023-12-11 13:29:35.341113,15.719611298383525,9.574605374871656,9.999375377750795,-4.375439823357365
2023-12-11 13:29:35.342098,5.248339816194261,3.3626487072973297,11.318334191095499,6.222499561348345
2023-12-11 13:29:35.342098,7.291252037204961,-0.21527618380799346,3.549398819941086,27.217265071868187
2023-12-11 13:29:36.396619,3.8667893891815592,-2.450518352160819,2.687541228654365,24.17440691420638
2023-12-11 13:29:36.403625,-10.529859486966737,-1.8505336067455804,4.475651624916264,3.8462647737183464
2023-12-11 13:29:36.409618,-11.967851037083323,0.14593513225421104,-0.05949419098107127,-16.09061506335882
2023-12-11 13:29:36.411623,5.4569884113095375,-1.8218017156103088,-2.3797158388903314,-16.539624268331192
2023-12-11 13:29:36.413622,8.899053560095455,-4.775287491397394,0.39403730069170034,1.4086859914476586
2023-12-11 13:29:36.434619,-0.5113201320524768,-2.0903934707183263,7.244638761417696,10.52967113307515
2023-12-11 13:29:36.439623,-0.7190753417853278,2.311417010111778,9.389599382811024,-0.3168632261148894
2023-12-11 13:29:36.443621,-4.583465619659613,3.5041154508565158,0.6286344188268648,-16.531353257048103
2023-12-11 13:29:36.444622,-5.354227675442329,2.6476073197891083,-5.790714347942534,-11.108539442720145
2023-12-11 13:29:36.445623,-2.8219385125522334,-1.2075435514807715,-6.646924976429381,8.943099739030792
2023-12-11 13:29:36.446623,-15.641325144126133,-6.540002213247735,-5.315326313833653,13.564265428819242
2023-12-11 13:29:36.448622,-29.408061624860746,-8.154742666757762,-1.9921489940189667,-0.6890038053752878
2023-12-11 13:29:36.463619,-30.90247926286003,-6.874185806906774,-5.505726701098678,-20.07483776595124
2023-12-11 13:29:36.465620,-11.15291927115306,-6.525375178277474,-12.03667654119353,-15.315178719415847
2023-12-11 13:29:36.466616,9.492560051427832,-7.112830099774601,-10.112898881623398,8.351124113281408
2023-12-11 13:29:36.478621,-0.67446992875607,-6.919080083299011,-3.7902842415963023,9.302084532805434
2023-12-11 13:29:36.596615,-11.179271444721522,-4.176605532420577,-3.557443735298065,-5.63838827214853
2023-12-11 13:29:36.613619,-6.939457421356722,1.068785038348824,-11.590259458330427,-17.185073473741802
2023-12-11 13:29:36.627616,5.3473162379120485,2.870636793252262,-16.61009506991283,-18.536414256157716
2023-12-11 13:29:36.641668,24.31572299960367,-2.4851241720299315,-14.543529420250849,-4.38392392006422
2023-12-11 13:29:36.668620,14.720632100941604,-7.077347134807098,-14.133095965457214,-1.520737795707696
2023-12-11 13:29:36.680624,-12.126380269418716,-5.4506696304671935,-13.251644108356983,-14.939529035644048
2023-12-11 13:29:36.685616,-15.644009971354425,-4.347675241345681,-10.586001560528155,-20.59813915879778
2023-12-11 13:29:36.700616,-4.77092058313798,-5.197391576596273,-11.570351339312463,-14.099156876038895
2023-12-11 13:29:36.704622,5.759385151188965,-2.224959687786452,-9.997563314252911,1.861459678722655
2023-12-11 13:29:36.713620,7.010626032803071,0.13286996114225771,-6.195840260161551,9.876147268670183
2023-12-11 13:29:36.722615,-0.24337636599199095,-2.058544157532359,-8.539629070922349,-0.8936567735056657
2023-12-11 13:29:36.737622,-5.239004771798812,-2.3158147422487674,-8.874329335773341,-12.414700957968664
2023-12-11 13:29:36.745621,-2.8287268131353773,-1.3150578984328982,-3.372523098051401,-9.981660691575007
2023-12-11 13:29:36.751621,9.015357618151427,-2.394610425830573,-4.08581221497656,1.9763088178816548
2023-12-11 13:29:36.756616,11.342623524803674,-1.5751719165754687,-12.030483494303432,-0.7384208221483879
2023-12-11 13:29:36.781622,-2.9514174569015785,-1.0713269542854285,-16.592021747928253,-14.370766354483969
2023-12-11 13:29:36.783617,-13.624322885238728,-3.0887028252924837,-13.794133373808283,-15.255740894071394
2023-12-11 13:29:36.785618,-13.688116984066696,-3.0467552564540212,-8.659018726787389,-15.582809323691336
2023-12-11 13:29:36.796619,-0.9902507561912708,-3.3054429728435393,-5.2550500498272985,-6.990630216306421
2023-12-11 13:29:36.822617,12.99243897730546,-5.251230556964331,-4.1429750877420615,14.620109115933602
2023-12-11 13:29:36.851617,5.559610860809454,-4.009602866548834,-5.805616447069812,7.501722646670856
2023-12-11 13:29:36.859652,-8.313634137329927,-1.78610989203812,-7.1821663218590235,-15.973239230362553
2023-12-11 13:29:36.867620,-6.247478127435832,-1.5794901757041928,-6.8948131575689615,-17.053418937142826
2023-12-11 13:29:36.884619,1.3911669616487685,-0.7206829225173331,-6.574972598247345,-3.4799909187943814
2023-12-11 13:29:36.890616,5.115810128900514,1.1733876729924848,-5.448895289017074,8.595894248260775
2023-12-11 13:29:36.899614,3.6078552936250743,2.1348595556796743,-5.3716516963032825,6.384780298295964
2023-12-11 13:29:36.912620,-1.5084458701921246,2.2543251798653494,-5.430776038096242,-4.176237935251291
2023-12-11 13:29:36.922616,4.97346863582278,2.8764807107250885,-3.7146076042170986,-4.12517487119332
2023-12-11 13:29:36.931621,17.94499596510769,3.5998158071380337,-3.9042929708215595,2.509833140427221
2023-12-11 13:29:36.945627,17.096937103111056,3.786884738724875,-3.905060454828195,9.383081150142104
2023-12-11 13:29:36.950617,9.941031794737635,3.600602007871479,-1.843560321732993,12.012964302615513
2023-12-11 13:29:36.954622,4.022817122073347,3.204117555766959,-1.0274553157543356,4.7770372396321115
2023-12-11 13:29:36.985618,-1.690495028495143,3.465979836559026,-0.5667988548528123,-0.7449435778041101
2023-12-11 13:29:36.995623,2.1904514467509224,3.9605029637060265,0.656686058236095,1.650745670806148
2023-12-11 13:29:37.000618,10.1813242084683,3.882862410122722,1.7940374361238287,3.916590930467766
2023-12-11 13:29:37.009618,8.836926730637979,2.9773765703928263,0.750169268557231,2.1454994564362684
2023-12-11 13:29:37.016617,2.0876894342755574,1.6228556062735378,-1.3910528904788215,-3.9174373167909238
2023-12-11 13:29:37.021616,-1.5304267625144943,1.2249239722487466,-1.1410731815063135,-8.238732371791166
2023-12-11 13:29:37.030612,-0.43159376079444894,0.770531918758366,-1.1227504713152334,-5.332844079271209
2023-12-11 13:29:37.045617,1.4955090377868068,0.19032942845579115,-1.0830190235732684,-0.516402500663603
2023-12-11 13:29:37.052622,-0.3577094004556116,0.07718639153604025,0.39729041173032126,1.3880482239832028
2023-12-11 13:29:37.085616,-5.064053900936523,-1.1741267538226143,0.2443578405208572,-1.402029572571802
2023-12-11 13:29:37.092653,-5.803885663834232,-1.6796155959086825,0.08297192073760984,-5.539854996609397
2023-12-11 13:29:37.105615,-0.2132941529627952,-0.846780627405969,0.2705045538791562,-2.7181308954707823
2023-12-11 13:29:37.133618,3.977684750100687,-0.9840617087246233,-0.26770033143423866,2.308316574486846
2023-12-11 13:29:37.137621,3.7329839908628553,-0.972459882776777,0.2588287945112296,2.7286492387792896
2023-12-11 13:29:37.152616,4.014185584448599,-0.7036960269368591,0.35730114777430144,2.179575592662364
2023-12-11 13:29:37.156614,3.8834068254132394,-1.077441069448631,-0.3055184279607062,-0.7685837243731523
2023-12-11 13:29:37.171615,1.5046649560412526,-1.299524191553086,-0.5913164191158643,-1.8897729831642576
2023-12-11 13:29:37.181619,-0.09153723686709167,-1.4672448654566705,-1.1875297001103655,4.385692020311537
2023-12-11 13:29:37.195623,-1.6427232611650087,-1.5832178868664948,-1.3885857830459838,4.73434457148271
2023-12-11 13:29:37.200617,-3.922815329977229,-1.294411003318699,-0.583112106661413,-2.097273761201862
2023-12-11 13:29:37.211620,-3.6990107408478505,-1.1904797629589765,0.17333023604373235,-3.0125740886800725
2023-12-11 13:29:37.215618,-0.07817221292914486,-1.915402785943693,-0.5751455707123645,-0.8085688307987756
2023-12-11 13:29:37.222615,4.95016901459907,-2.4366463106692673,-1.9207633437628826,2.179438058222875
2023-12-11 13:29:37.233618,5.864058535866571,-1.4841004412772671,-1.6795804926798574,5.598541379688411
2023-12-11 13:29:37.264621,1.3920019890469224,-0.4847190307026167,-0.5633901491526303,2.009164268558114
2023-12-11 13:29:37.266617,0.011319400215062973,-0.632692164138879,0.09410037746669603,-2.344765589684386
2023-12-11 13:29:37.272616,2.2448244164222135,-0.8161622029807405,0.2746009749899072,0.45543403278778577
2023-12-11 13:29:37.279620,2.3179359278754434,-0.5535915283725432,0.19965146194717912,3.87707971546853
2023-12-11 13:29:37.294636,1.0603503995179004,-0.3655704034910962,0.12439914001695412,4.134431902147766
2023-12-11 13:29:37.313622,-1.4701067371162977,-0.3977149554610289,0.047361677342255576,1.318982624951249
2023-12-11 13:29:37.326619,-3.663065610463925,-0.2962941537142787,0.16550936417621412,-2.209891712249591
2023-12-11 13:29:37.331623,-2.246155015191346,-0.1724221424952472,0.23129430851427846,-1.4769866111749412
2023-12-11 13:29:37.347622,1.003272177552921,-0.36486453037214134,-0.06861679541431932,0.8181227948450783
2023-12-11 13:29:37.358619,3.41515726772706,-0.2658539130742284,-0.16642627881737887,2.390527917752195
2023-12-11 13:29:37.370619,1.5134930888521057,-0.08181084757051979,-0.08806411780168233,3.2392486014866866
2023-12-11 13:29:37.395622,-3.205421832355494,-0.3757590005495963,0.10840474155613779,0.5670824190442862
2023-12-11 13:29:37.405617,-3.5391822536792463,-0.3506789409462004,0.16935569365561184,-0.6718801723932997
2023-12-11 13:29:37.412622,0.4248110924230412,-0.02745463191767757,-0.49732439282442575,2.730164062785494
2023-12-11 13:29:37.418613,3.298141238103738,0.17886594339166142,-0.4159386358046619,4.9463986662527315
2023-12-11 13:29:37.429616,12.755416604948971,1.8870806143763361,2.5111104012531342,26.75055964766862
2023-12-11 13:29:37.436618,-7.636406549300831,-1.8413804929593276,0.3327098209425535,8.143441991734353
2023-12-11 13:29:37.449619,-6.421816907354741,-3.401685937944088,-3.4224377035712794,0.6555430065146108
2023-12-11 13:29:37.455619,9.304790322548959,0.3789870090795726,-0.6199331930011075,15.637683228526017
2023-12-11 13:29:37.467621,25.898039057300508,4.247030183989242,1.8058998610359664,26.718437002348754
2023-12-11 13:29:37.478643,28.755637646077677,6.291170859739778,4.2424186359063,27.32277713016257
2023-12-11 13:29:37.488618,6.548199820983591,4.6521558855052545,6.382296633576739,12.150106187594115
2023-12-11 13:29:37.502619,-8.796742567318654,1.4381233388373291,3.6672593101913344,-10.232764484086609
2023-12-11 13:29:37.505621,-4.282247560173534,-1.6900957588615775,-0.5210461858348383,-0.3763438986793661
2023-12-11 13:29:37.519618,2.5024545211024605,-3.737550144660313,-2.76115041714996,20.025041260571456
2023-12-11 13:29:37.534617,6.531475598867389,-0.2771471473560101,0.10834147719991469,12.98602832456602
2023-12-11 13:29:37.547619,-2.4656464966003138,3.518275307166237,5.631667300724302,-4.2299251695808335
2023-12-11 13:29:37.557674,-12.857459817429135,0.9834898800669872,4.235059466857934,-8.06084605223605
2023-12-11 13:29:37.562620,5.07727774568024,-0.7694547747503749,-1.1651767832175945,6.673345747290309
2023-12-11 13:29:37.580615,27.183311152047132,3.291395198592706,0.8201499908493941,19.505116344992132
2023-12-11 13:29:37.585618,12.858767825824017,4.9163907733763565,7.355122165643726,21.59404058358054
2023-12-11 13:29:37.599623,-9.835560357579345,2.9716802807574325,8.922549654957852,21.59104774520356
2023-12-11 13:29:37.610623,-6.550168155647849,4.218504500465344,6.689717157486504,3.376985627081676
2023-12-11 13:29:37.616616,3.163861788450111,4.303313588349738,4.655310218477091,-10.18713774307376
2023-12-11 13:29:37.620612,8.926220399987972,3.1826248500465044,4.980992031823874,9.652694237499377
2023-12-11 13:29:37.628614,7.191823001769516,4.800543643785922,8.067986478022565,22.88467931895722
2023-12-11 13:29:37.649619,-9.74100299874148,4.289216042496158,11.52333455327173,22.85403171583389
2023-12-11 13:29:37.664616,-19.558572065731337,4.500295011410652,14.679444856284261,22.07316174402373
2023-12-11 13:29:37.667619,-12.502651457597999,6.077084474134354,12.0130645631501,-0.6981127221309555
2023-12-11 13:29:37.677624,-2.524836840317686,3.6922560503630106,4.56763678387248,-18.34015815238716
2023-12-11 13:29:37.685614,2.8476040392874538,1.777490731773404,2.654055568482377,-6.2358764199614996
2023-12-11 13:29:37.697617,0.6461251494589134,2.6163434640073393,3.096856808125106,-2.3600792228709215
2023-12-11 13:29:37.711622,-3.3254342780901927,5.604541027442925,5.575963775437854,-17.199610266212137
2023-12-11 13:29:37.716615,-3.876981921393458,7.678132956019144,10.804107521102477,-9.410056715490827
2023-12-11 13:29:37.729617,-3.5451998807069565,4.3375165798244515,9.201418286360216,20.232581385223163
2023-12-11 13:29:37.736618,-7.203933030089213,3.3844364667130353,7.921764206569672,15.025239549039238
2023-12-11 13:29:37.748617,-17.46869712671875,5.5089530023039845,9.640233715934036,-22.132354749860305
2023-12-11 13:29:37.754613,-25.626856129416797,3.4827195403646587,6.841139033162994,-38.47108026978666
2023-12-11 13:29:37.777618,-14.44032295781966,4.592183325800004,8.170654322926714,-22.906462454278298
2023-12-11 13:29:37.779621,8.80721165073396,8.362571186955078,10.797876962611658,8.039106677477251
2023-12-11 13:29:37.783616,5.592728753142536,5.721381875675138,9.474616955701707,18.57901654142217
2023-12-11 13:29:37.798617,-16.60898791058349,3.656260061820152,11.491778029573114,-4.2305529179488826
2023-12-11 13:29:37.806619,-21.82487000244468,5.646995957109815,11.892318992972896,-21.318411722360494
2023-12-11 13:29:37.817617,-21.47171179138343,5.575159370963975,11.286732619003521,-17.554414650370852
2023-12-11 13:29:37.829616,-19.18366089349421,3.8257536256605853,12.279961206872267,-0.5139480810819235
2023-12-11 13:29:37.837620,-16.60507610126011,-0.11875659344829095,6.881422980226998,9.736188979261664
2023-12-11 13:29:37.846619,-25.757722873714876,-2.4372377373742866,1.9093791326552847,-13.904165960788088
2023-12-11 13:29:37.854612,-22.903510826567373,2.392835452603032,4.2917631520003985,-30.183171927349022
2023-12-11 13:29:37.865622,-12.976689852566752,3.874397347216772,4.797658381607402,-12.236232599882081
2023-12-11 13:29:37.872615,4.012534810465612,0.8993754661257292,-0.9166752795280544,-1.1520002605110418
2023-12-11 13:29:37.897621,41.439075846328514,5.446207094673223,-4.390638095027869,10.237507549750273
2023-12-11 13:29:37.901618,27.133810203320238,7.261838520031777,-1.0444423107462955,19.382861093968454
2023-12-11 13:29:37.904616,-36.85120757741616,-1.954209229480482,1.491235662287357,-10.214705904256434
2023-12-11 13:29:37.931622,-44.91959662157061,-7.589930144598098,-0.1972567232336855,-34.79099321561544
2023-12-11 13:29:37.935616,-10.424986917915998,-7.657670715535534,-4.096308067055862,-18.34910832934976
2023-12-11 13:29:37.937631,5.972802194379899,-8.073063865527242,-8.263911472528601,2.746345134128612
2023-12-11 13:29:37.951614,6.360365350954642,-6.433744887251044,-9.127790243654312,-0.26393152950159243
2023-12-11 13:29:37.965615,-7.515403840187061,-8.666721132118177,-8.672375317526551,-23.85369069689896
2023-12-11 13:29:37.973631,-15.212722382635746,-12.78355927027355,-6.872995035414014,-26.985517683654496
2023-12-11 13:29:37.981618,2.586578230099316,-4.548970082717363,-1.718778761280527,0.37944991881462353
2023-12-11 13:29:37.991651,14.071249851598074,6.267475694796211,-1.0348478172544182,6.964917743204319
2023-12-11 13:29:38.004617,6.658370120527335,1.7944951405439622,-7.391533452655412,-0.3350308981310739
2023-12-11 13:29:38.028621,0.6730968709543939,-6.108409145890301,-8.113580754579733,8.288307569730387
2023-12-11 13:29:38.030622,-6.346249492950107,-3.2398945992311425,-1.730054858219734,-0.24137580730244607
2023-12-11 13:29:38.034617,-4.829538135088639,-0.3027749674038712,-3.29087576356225,-11.439052632931784
2023-12-11 13:29:38.048620,15.730203685143417,-2.8819302581507404,-7.269064166893706,11.535507566123233
2023-12-11 13:29:38.062620,15.545839321805126,-3.587039810392287,-1.4547651055864221,24.627912479422406
2023-12-11 13:29:38.071615,-11.785021537677565,-2.9267030787166295,4.071077038603656,8.179530569114208
2023-12-11 13:29:38.082617,-22.176762913835972,0.5480982137707399,6.676293828612793,-10.356429403351283
2023-12-11 13:29:38.089617,-5.848702931689731,8.103594936578657,7.992990977571673,-14.446057595261982
2023-12-11 13:29:38.100618,14.651314792591887,10.431530736003024,4.31636130352281,10.127259636942235
2023-12-11 13:29:38.115614,12.207607232956239,6.935255379347458,5.504862759173433,28.677607705548795
2023-12-11 13:29:38.130615,-2.919530719795482,4.485344545393881,8.605787085627124,5.59020350668345
2023-12-11 13:29:38.134619,2.0445541725762415,4.096435066671896,1.8663224981790696,-20.448711808428545
2023-12-11 13:29:38.142620,17.242482474395974,6.5223609615810725,-1.5896344445541468,-14.046616331214324
2023-12-11 13:29:38.152615,29.82741596826187,10.030736977487047,4.0430025182357685,8.643427924097335
2023-12-11 13:29:38.168618,30.636028379708762,10.591121986475528,6.330929081232404,16.59402441043874
2023-12-11 13:29:38.179616,7.262707469792558,8.77617800198235,5.592220253760454,6.515293822468886
2023-12-11 13:29:38.188618,-7.2730181394791975,6.6973325428457455,5.209480498720752,-0.29864050473781123
2023-12-11 13:29:38.209631,8.888616333730125,6.284166102255098,3.5521238508963435,1.637955977348421
2023-12-11 13:29:38.214615,26.029033379702028,7.956163261051431,3.6856750543974246,4.106202964291148
2023-12-11 13:29:38.219618,24.774486730873882,9.776736572062745,7.322344029953274,6.735694287015964
2023-12-11 13:29:38.228620,11.152788728831531,9.919762558972382,10.48849812193821,2.7590059121196395
2023-12-11 13:29:38.247618,-6.392117737239413,7.854884489695131,8.264658490599373,-14.286597605777901
2023-12-11 13:29:38.252615,-5.191682782786482,8.088087592735672,3.4863048747143845,-18.14506779629259
2023-12-11 13:29:38.266619,23.218854464276426,9.970990313311681,-0.3167216492711636,-1.4118639143311584
2023-12-11 13:29:38.288616,30.909943472904057,6.9212307673182,-1.8644374513861237,9.748272337449997
2023-12-11 13:29:38.294618,4.925290719871759,5.522047262407547,4.559832111529341,11.211783087052188
2023-12-11 13:29:38.301615,-12.50791068587959,7.876928782796282,10.106595102840041,-6.375206179414489
2023-12-11 13:29:38.315623,-16.771760866203437,5.352974180794549,6.616888623238907,-23.15741250744191
2023-12-11 13:29:38.327617,-7.4398660428105465,1.6856742213944074,3.243811531539806,3.8778150768799553
2023-12-11 13:29:38.334615,5.337671568961086,-0.7855506098787695,1.1702756964749579,27.359048024308382
2023-12-11 13:29:38.340620,-7.091520986577105,-2.4291221330036743,4.517593576250245,6.745064447475262
2023-12-11 13:29:38.348615,-19.291892326692,-0.21814528794916568,9.993683674740101,-13.303709428338852
2023-12-11 13:29:38.368616,-15.713838395549072,-0.2368613130647249,2.902100369834514,-14.30005792769607
2023-12-11 13:29:38.379617,-9.850775676200488,-1.9543450415202466,-2.8941092883715744,-7.291279526897079
2023-12-11 13:29:38.391619,-2.145478804505719,-0.7754922103510664,0.5208930480563249,7.955761948535492
2023-12-11 13:29:38.401622,-3.278067425236294,-0.6584306198881764,-0.5859647083466782,17.719425320232578
2023-12-11 13:29:38.429615,-0.7548502869860155,0.36743547790121034,-3.8018817040723776,1.5121065567911225
2023-12-11 13:29:38.432619,8.770472909437128,4.846322422508838,-0.8945882313609912,-23.45698198454497
2023-12-11 13:29:38.436615,3.964964678525881,8.02318133880851,6.267262867438594,-12.156439569034227
2023-12-11 13:29:38.451614,3.8104687909863726,4.286261146205526,5.252733037095212,20.200483569811524
2023-12-11 13:29:38.462615,9.400749497443922,-2.792549356012002,-2.075295979316618,25.58945782711177
2023-12-11 13:29:38.469619,0.4744997178492784,-2.7265251256007907,-3.542857268629672,15.986291902186903
2023-12-11 13:29:38.487618,-2.3816816405313057,0.815937519186035,-7.161080840621517,4.51836866963888
2023-12-11 13:29:38.510620,9.948970783739789,1.995456464050481,-7.91028072727254,-1.4787625233653445
2023-12-11 13:29:38.514618,17.09865492205856,2.6326207781141027,0.12216488001712328,18.92638492341691
2023-12-11 13:29:38.517615,15.311444941807052,0.2828748429101171,-0.24206118580432592,25.22401205523936
2023-12-11 13:29:38.535616,7.830801169553237,0.32443333108231487,-6.610435223620139,8.28384435299952
2023-12-11 13:29:38.541622,-6.505689634229073,2.133974863588763,-8.659143196230374,9.326512025126933
2023-12-11 13:29:38.565621,-4.435872417014817,-2.2776936922187794,-7.768633198819043,4.637434112599171
2023-12-11 13:29:38.570613,10.553762391841122,-2.868220551213051,-7.544885644123622,2.359057479425984
2023-12-11 13:29:38.585616,-7.362856001946485,-1.9622889556406646,-9.719248040542794,16.9615395684831
2023-12-11 13:29:38.594620,-36.62577169479263,-7.595129481214634,-9.278577406647413,-2.3703744791917543
2023-12-11 13:29:38.603615,-35.2797432599595,-7.77793568939202,-9.982084182199094,-30.736582072692375
2023-12-11 13:29:38.611622,-21.512802722178133,-5.6695161720017175,-10.524180990982634,-22.993373431960627
2023-12-11 13:29:38.629615,-9.861713897846732,-6.617859730231883,-6.901970902692188,-4.742786240657923
2023-12-11 13:29:38.634615,-6.193640476191533,-5.551842361205282,-10.261112372993251,4.283402991999827
2023-12-11 13:29:38.648617,-9.813765677846408,-7.6502791299986015,-11.959687020012957,-4.812061634011806
2023-12-11 13:29:38.658625,-11.303764245184436,-10.260495103075538,-7.827749295321715,-28.79915198468346
2023-12-11 13:29:38.662618,-9.848224783943758,-10.627560396127288,-12.501221915443551,-36.34113698323014
2023-12-11 13:29:38.667616,4.2640878250594785,-11.484627128440032,-16.190107670104705,-10.975656107500967
2023-12-11 13:29:38.700616,11.589451855018147,-10.315661443188171,-14.654172320697572,9.471077598605026
2023-12-11 13:29:38.703613,-8.961136465720212,-10.471156560374693,-14.755024129474927,0.6790193331385866
2023-12-11 13:29:38.717614,-20.05499107307651,-11.050962022373069,-15.436143849801647,-5.589791300120394
2023-12-11 13:29:38.729615,-7.055758786190512,-12.725061667543027,-21.387942882917265,-9.137304297843862
2023-12-11 13:29:38.737615,-0.876037367740837,-16.244413884761368,-22.73174791332906,-5.874714464235644
2023-12-11 13:29:38.751615,0.9363423202582221,-12.950349199652926,-16.733022051891087,20.59811679513891
2023-12-11 13:29:38.762619,9.722629948001972,-12.943069601720437,-16.70931916398573,25.41498991284122
2023-12-11 13:29:38.767619,1.6828053880230414,-18.773158276967656,-16.436960564869274,2.514658903535948
2023-12-11 13:29:38.775642,-8.342501860491497,-14.362889180128043,-18.110444561144202,-6.927510343640581
2023-12-11 13:29:38.813618,4.9717822197663315,-9.224157082737715,-20.746448192502896,4.093226089079261
2023-12-11 13:29:38.816626,-0.3080445829596681,-11.75967298991855,-12.646326675185572,19.245049197614975
2023-12-11 13:29:38.820615,-24.248446586431893,-13.536815622695451,-12.038754119053669,8.07075970964931
2023-12-11 13:29:38.834613,-25.288548052238976,-15.065415531469666,-19.99277692756991,-16.486763607963514
2023-12-11 13:29:38.850617,-4.238677632203135,-12.492846472497702,-15.546687760986213,-10.323140469232948
2023-12-11 13:29:38.861620,21.774533986835294,-6.897663769750287,-14.698327931783783,14.14109646742366
2023-12-11 13:29:38.867613,13.098984597759644,-8.862133230361254,-17.92417921857239,16.352568650300242
2023-12-11 13:29:38.878616,-18.217100021927862,-12.106822440922716,-11.841305376101635,-7.074433167119741
2023-12-11 13:29:38.887615,-17.564798783023026,-9.362817472843755,-12.310362060501603,-23.547698805735006
2023-12-11 13:29:38.910620,-12.335224349074325,-8.583941950303533,-19.819219466682657,-19.937500092573213
2023-12-11 13:29:38.916620,-5.89754181151574,-7.260931380655171,-18.26079070403277,-10.048921000973131
2023-12-11 13:29:38.927618,23.30984649068711,1.2584565588803702,-12.913571619456599,7.244110632749339
2023-12-11 13:29:38.940621,27.59030085221359,6.033903791672009,-8.985593468596468,20.974156273114918
2023-12-11 13:29:38.953615,3.9465522030842486,1.3620076592090735,-4.023950018122426,8.796843020408664
2023-12-11 13:29:38.966615,-4.299227230306688,-2.7608331531421033,-1.793387758024306,-7.475662528426438
2023-12-11 13:29:38.987617,8.68954096952018,-0.5523994641436772,-3.731537456013282,-0.47491685296451547
2023-12-11 13:29:38.991622,15.294990454483871,2.258973053018558,-7.7889585635927725,16.15334306245011
2023-12-11 13:29:39.001614,-0.3694073500018002,-0.2936441952036194,-9.528146640999067,23.0799392202104
2023-12-11 13:29:39.011614,-4.73766549773359,-1.5981024065373926,-6.669015273589154,11.383399113768473
2023-12-11 13:29:39.020612,8.802741596784827,0.6887308123193844,-5.688739661240178,-7.754625924592648
2023-12-11 13:29:39.033620,14.100196750856115,0.14994833444254005,-6.06831800004903,-2.0976568438419725
2023-12-11 13:29:39.044622,11.405225176140794,-0.27763356897815766,-3.154840616815059,20.2303485291597
2023-12-11 13:29:39.053616,-1.2568634029594263,-0.3371275641187615,-1.1150086349083177,24.55779461688016
2023-12-11 13:29:39.070614,-8.938756647177366,-2.0321910487421264,1.1981722187688728,19.173084269280828
2023-12-11 13:29:39.079615,-0.12416139892823157,-2.544522396264301,3.569967686746264,11.279220609249471
2023-12-11 13:29:39.083626,3.5278258086785783,-2.487590517498971,-1.478062064376476,-2.804222030203383
2023-12-11 13:29:39.130615,5.018951401143083,0.31846252834134403,-3.760192762963177,2.91682681823522
2023-12-11 13:29:39.146644,4.522736269098185,3.26077665244485,4.494762750066052,11.973443430517209
2023-12-11 13:29:39.149622,-7.128655402951327,2.2178390026573234,6.221652426409537,-10.17802919433946
2023-12-11 13:29:39.153615,-6.103874366469415,2.722032010988352,1.0243187425240625,-27.193227039903014
2023-12-11 13:29:39.169617,9.830332999129114,2.0818696113961384,4.38825730886246,-18.25321437160704
2023-12-11 13:29:39.184616,16.030876148256993,-0.9464298084863236,9.249777924413408,-7.2511120207076685
2023-12-11 13:29:39.196616,14.50095667491488,1.9413845148760656,7.08376422923077,0.8545904093242389
2023-12-11 13:29:39.201616,11.915928994746093,5.639250883822202,6.263084667213054,-5.019812816400299
2023-12-11 13:29:39.214617,1.069507545345325,2.5588126709587153,10.057543104341887,-27.46485974966047
2023-12-11 13:29:39.231622,-3.501845405008417,-2.214395947746052,11.872839184575502,-29.207373947458375
2023-12-11 13:29:39.242625,13.853241981837343,-4.711391251072813,8.929695969444124,1.0355414695900547
2023-12-11 13:29:39.258625,24.59049131275152,-5.876882979735044,3.9495148495901238,23.742661564454032
2023-12-11 13:29:39.263614,13.434561842201497,-5.5290495484294375,-0.6805645315609627,15.851259365595979
2023-12-11 13:29:39.293622,-0.8787183955035839,-4.884767745125214,-0.8968752988396441,-7.381613733340137
2023-12-11 13:29:39.297615,-10.82601584848821,-7.446861694806114,3.034120764926447,-26.24449942168033
2023-12-11 13:29:39.300622,-1.5398983757609486,-8.777148746626107,3.2201089255528643,-21.953577495527412
2023-12-11 13:29:39.303614,18.278888658860588,-2.973276361742971,1.1629940192104313,0.5753510511498997
2023-12-11 13:29:39.316616,13.428870895771016,0.4465367579699742,0.3701539855436715,1.396003151713903
2023-12-11 13:29:39.334614,-1.8211883013092702,-2.2962708354208017,-3.6825749327268777,-16.502205629827618
2023-12-11 13:29:39.349614,-2.1084925845132716,-0.02710772050384029,-3.030856648324914,-10.475644671309189
2023-12-11 13:29:39.360619,11.292512086201876,2.968004768408928,8.131959708305406,6.375301082903575
2023-12-11 13:29:39.382616,23.945448890410923,-0.9210012114356284,15.463692723097981,3.7452517654380753
2023-12-11 13:29:39.391627,13.860022196702735,-1.5977783370373393,15.128019410188339,-3.894017022133145
2023-12-11 13:29:39.403615,-1.7398249209948535,2.4614554596349323,15.674821208853636,-9.642100800949693
2023-12-11 13:29:39.427620,5.2643001710783475,2.420177677967604,17.23879062336664,-12.561832758172956
2023-12-11 13:29:39.445619,23.900105543965648,0.2935864673725887,18.634864892560774,8.120038265644236
2023-12-11 13:29:39.461619,35.967642866072374,0.12145220479868725,18.456856035366897,29.165304470751945
2023-12-11 13:29:39.465621,26.908235017751455,1.0277306896601677,14.441637776656828,11.110353984156479
2023-12-11 13:29:39.468617,-2.2094400226389532,3.582469466621271,9.96026783268273,-11.06185088318795
2023-12-11 13:29:39.479616,-17.762274345271464,5.142021246724399,9.083913873052625,-5.4329380731748085
2023-12-11 13:29:39.500615,-1.9300191992057107,3.2860958315712927,11.916383173617218,-2.934388573497422
2023-12-11 13:29:39.508618,12.960080675950268,3.3724118346481906,12.457676380642495,-8.801443380123471
2023-12-11 13:29:39.517614,4.580783783011952,5.803196036514747,7.590732969755245,-3.2341891264256644
2023-12-11 13:29:39.531614,-6.134121734899488,5.952113263353697,5.845845044023873,-2.444119727839202
2023-12-11 13:29:39.543613,-9.773637977071006,5.150081345642831,8.519765516390585,-15.91081327640005
2023-12-11 13:29:39.553615,-7.845810163665478,4.388418337225057,9.155773091405983,-13.78723007160707
2023-12-11 13:29:39.575622,3.4702936119882284,2.8775629271962133,10.330509648516538,7.193470489553843
2023-12-11 13:29:39.600621,6.2809929342548125,1.1770132275070109,10.129056398333733,10.983474861681605
2023-12-11 13:29:39.606618,-7.313884231134655,0.6467937971818074,5.639336553536407,-1.5469665692150012
2023-12-11 13:29:39.614615,-14.847874294405589,0.7456483535907862,5.937838271546766,-8.587072908653104
2023-12-11 13:29:39.626618,-7.410646038828922,-0.4891521062895221,9.243484067949641,-7.030986675010562
2023-12-11 13:29:39.639663,-1.4473390468152547,-0.6496354936776606,7.1772204703788605,8.318877226807375
2023-12-11 13:29:39.647617,-2.25153164982512,-3.2276928805165084,6.056389771955247,13.217064599741732
2023-12-11 13:29:39.658620,-1.8345707251177639,-9.764550357770917,8.421750298808222,-10.310401368149122
2023-12-11 13:29:39.669618,-4.522243159049489,-6.9702476838489575,6.626537208907765,-24.052136822861016
2023-12-11 13:29:39.679619,-4.168165515903664,2.597879225766597,0.6335261355487704,-14.906268540689137
2023-12-11 13:29:39.684614,5.023139595030158,3.974252355095309,-1.8856574158054245,2.7761376223459364
2023-12-11 13:29:39.708623,8.445770818248413,0.5961874981252672,1.4912875382852346,17.621122951736517
2023-12-11 13:29:39.720615,6.68121450033176,-0.28390257160545845,4.270742857798814,7.875882993544141
2023-12-11 13:29:39.732619,3.3557036390369266,1.4011894190150407,3.495296709481992,-10.67545789919548
2023-12-11 13:29:39.742621,4.039807870723037,3.5304642240065514,2.696663162729023,-9.101100629641937
2023-12-11 13:29:39.752614,13.519425852546652,2.9038413623204153,3.1421447082279985,7.573807719112708
2023-12-11 13:29:39.792620,10.893690055438944,1.832888632930062,4.114356515845947,22.02886106470108
2023-12-11 13:29:39.796614,0.9473526504110765,2.572901265645441,3.4240992161499233,13.313158059067039
2023-12-11 13:29:39.803614,-1.0774240793560126,2.552892167920867,1.3023246760435627,-7.48226477027889
2023-12-11 13:29:39.814615,-4.980566938604788,1.585568942991678,1.4452899945337996,-9.221260425530778
2023-12-11 13:29:39.830615,-2.8143027866533457,0.9665132537837453,2.53741800256731,1.3787691964132416
2023-12-11 13:29:39.844615,4.106252801757161,1.4897891252007642,2.776909709078088,6.524281432414137
2023-12-11 13:29:39.865618,-0.7162058237385364,2.434470808306436,2.8885586402257095,3.6502900098720517
2023-12-11 13:29:39.869622,-9.519340978317025,1.3158421688971547,0.8617212726918188,-4.992237332422239
2023-12-11 13:29:39.880616,-11.701752235256857,0.055351040055307874,-1.7600024568587513,-10.870914532380821
2023-12-11 13:29:39.914617,-4.811410879634222,0.6329448650433547,-1.0852389503829134,-6.036165011539229
2023-12-11 13:29:39.917618,5.488434187139976,0.7341001529950167,0.15387727367765935,3.974609224515692
2023-12-11 13:29:39.927616,6.567923548305248,1.544627261661686,-0.579929954479834,3.0229550784383985
2023-12-11 13:29:39.935615,-2.826979307714391,2.9638182983898416,-0.5044899673793183,-7.696054947040196
2023-12-11 13:29:39.948619,-10.866739495901324,1.3928960623098456,0.4135978324785302,-8.557003718460146
2023-12-11 13:29:39.959619,-9.544106557975432,0.30255852897197094,0.030133349443477047,0.23546952283759343
2023-12-11 13:29:39.976615,-6.115445596391288,2.192299144192354,0.16569392960867727,4.203260883305874
2023-12-11 13:29:39.990625,-4.6291707207115955,2.88986209349389,1.0155878128853437,5.106192469810405
2023-12-11 13:29:40.001617,-2.2020360075983447,3.012256282963685,0.14680686150222153,5.841612635070621
2023-12-11 13:29:40.012616,0.30795615431155504,4.192284150521749,-0.6763732463358504,0.9647191517083757
2023-12-11 13:29:40.019617,5.5296074727951225,3.3794208003262343,-0.31050746133068313,-0.5087950841804644
2023-12-11 13:29:40.047617,7.572717766136721,1.1886946498637456,-0.6473491993382487,8.118814680121803
2023-12-11 13:29:40.069615,0.17416154701848396,0.8579105629818106,-1.1825551827155756,8.934690864994716
2023-12-11 13:29:40.074619,-5.965962813747028,1.136285363013137,-1.2121934902735492,-1.7278984405044362
2023-12-11 13:29:40.079614,-6.6869901591785155,0.2547714638590479,-1.0203394162842396,-3.841795606965332
2023-12-11 13:29:40.093618,-4.40043152269229,-0.3070926361261371,-0.6593619317860646,3.3418038788499143
2023-12-11 13:29:40.116618,-0.7186537765320076,-0.4404282458691617,-0.4859921630834186,5.410315477464169
2023-12-11 13:29:40.144618,-4.251027369260162,-1.307312128026292,-0.24988660542770916,-0.47418556820490815
2023-12-11 13:29:40.147615,-10.884145817867168,-1.5805707778677283,-0.4470410267498635,-7.967190375617831
2023-12-11 13:29:40.152614,-8.514592806015376,-0.5934658841320337,-0.8803919372651403,-8.96222656423899
2023-12-11 13:29:40.160617,-2.877164600781962,-0.1812441789293774,-0.2832993809929753,-3.4327383310551847
2023-12-11 13:29:40.176617,-1.7549813490048196,-0.7283341250089009,0.001939609389089,1.8059688700480276
2023-12-11 13:29:40.182616,-3.7997992526472633,-0.7627503014230329,-0.512762607884948,3.363572469814611
2023-12-11 13:29:40.201618,-6.993929020146911,-0.1753376046443734,-0.44952231953679167,-0.9149232911950974
2023-12-11 13:29:40.234617,-7.325758296584024,0.2091242120074177,-0.3851909683474089,-6.388154322436108
2023-12-11 13:29:40.239617,-5.4417541092434725,0.18302787595510173,-0.6289957401380306,-4.744721577774975
2023-12-11 13:29:40.244617,-3.8723576244910083,-0.3185827409812133,-0.4516630250253547,0.017146870604780443
2023-12-11 13:29:40.258622,0.19763144509435251,-0.5691458153728621,-0.1024724595836744,1.2471028230364873
2023-12-11 13:29:40.265614,1.975639584827418,-0.10893940462955379,-0.18616785217929172,-0.688289666231423
2023-12-11 13:29:40.279615,-1.7088644431804345,0.2215805454625757,-0.5889882627177943,-3.4678898436538046
2023-12-11 13:29:40.284615,-0.6570848764680669,0.3484418413604257,-0.43123602300824837,-2.266509500836212
2023-12-11 13:29:40.306619,5.3390380001169575,0.5901123647227727,-0.1085404745794264,3.5832316399351622
2023-12-11 13:29:40.331614,5.843437232428835,1.0519594597719042,-0.7009101885484771,7.093576566747149
2023-12-11 13:29:40.344617,1.5721530638980443,1.442138970383075,-0.7680655522053148,5.94361119466728
2023-12-11 13:29:40.351615,-0.9559124845488963,0.9330868444503178,0.10139513782352563,3.076957377233792
2023-12-11 13:29:40.375620,0.26018901248987497,0.4263456238077529,-0.35843029287692657,0.3179399318528867
2023-12-11 13:29:40.400621,3.2123031489088008,0.46309253410787177,-1.2698783266221394,1.0159855378373195
2023-12-11 13:29:40.403617,3.3207820471149394,0.12146983535017848,-0.8514656545265962,4.045906159277348
2023-12-11 13:29:40.457625,0.4472573341482144,0.1773947758701501,-0.5684145113015585,3.1778366157374562
2023-12-11 13:29:40.494616,-1.4602006121860713,0.7402687926622546,-0.8622514801697686,0.044786069852399545
2023-12-11 13:29:40.516618,-2.274180764878243,0.712344403649891,-0.8385695993878385,-0.8196968514398663
2023-12-11 13:29:40.524621,-2.109756488214323,0.45506080572108065,-0.7169220283492027,-0.027762747102073007
2023-12-11 13:29:40.540618,0.015031194051834961,0.43696015682196165,-0.8324902775482586,1.2815331203011568
2023-12-11 13:29:40.575615,3.7274543316833806,6.803986710013356,-3.789192333419286,4.676410292312537
2023-12-11 13:29:40.581620,-17.842455534337752,7.742662368232043,-3.729520180274867,-17.541986038281088
2023-12-11 13:29:40.591621,-28.949796106736134,4.585951702013495,-1.9983811815404564,-26.829682880038153
2023-12-11 13:29:40.618616,-15.6565826719946,4.718440913781503,-2.3598460829497245,-7.287343331641934
2023-12-11 13:29:40.632616,-1.8141583598387823,7.930459241280556,-3.631304631207307,9.112410932871196
2023-12-11 13:29:40.651615,-1.985260540888643,8.237194968061456,-3.5735967295998803,2.26851527753847
2023-12-11 13:29:40.674618,-14.101322129189091,6.70749169465486,-3.226054478129834,-6.377273680473836
2023-12-11 13:29:40.697616,-23.488334395586616,6.067157137889864,-2.9803087419852883,-10.531208292725717
2023-12-11 13:29:40.718615,-9.68575119005873,6.2468938673904155,-3.144803563025596,-12.456455366173454
2023-12-11 13:29:40.725617,15.696651112006032,3.97350313009898,-2.3869077335223055,5.005896231090871
2023-12-11 13:29:40.729616,5.6142237982846535,1.5484926563949615,-0.9459344957515784,19.775792254117164
2023-12-11 13:29:40.745620,-31.417433726903703,3.7281024701604824,-1.6965027572152336,-2.7044898710639935
2023-12-11 13:29:40.751614,-26.548041117642185,5.90762764488909,-3.2045539181219955,-24.4136034860472
2023-12-11 13:29:40.767616,3.422100791161993,4.30802838005361,-2.1949202363406752,2.660855828605204
2023-12-11 13:29:40.781612,4.592152850285178,2.1996070725236865,-0.23115152431036917,37.83818253581698
2023-12-11 13:29:40.792620,7.205829648261208,1.6396856842961995,-0.6929561608432435,18.62900190497636
2023-12-11 13:29:40.799618,12.352827304391353,-0.3271558472883087,-0.7622198566839301,-20.909509535758843
2023-12-11 13:29:40.846618,-0.8966701034951121,-3.130618976751805,1.235394701431881,-23.320290287203854
2023-12-11 13:29:40.849621,4.417510127029121,-1.5399509215446496,0.1567604703491771,-11.076922500621814
2023-12-11 13:29:40.857620,17.586585116897158,0.778441121405168,-1.7590131951090617,-1.0635527117084127
2023-12-11 13:29:40.866616,2.642822361450979,1.372107698992932,-0.7206775492081052,10.523367843384197
2023-12-11 13:29:40.882615,-16.276316462992348,3.885297446614483,-0.7481203483964756,-2.1420493319519256
2023-12-11 13:29:40.901614,-13.390093204046034,3.634244068214138,-1.2226417025962037,-14.434226263028823
2023-12-11 13:29:40.917614,-3.6557013944528203,-0.34212469288511144,0.03501057346808661,-2.7438502243660894
2023-12-11 13:29:40.929623,-1.8457698886838456,-1.4568088974592084,0.9066347896135133,-1.7606683793073858
2023-12-11 13:29:40.940620,2.7477870519300853,1.4553364947829126,-0.17224786244441004,1.7099716632938462
2023-12-11 13:29:41.040619,-1.5334053301724533,3.6297125923193945,-1.8463747860193513,4.561940283687156
2023-12-11 13:29:41.045620,-12.106734911590209,1.5362176285122464,-1.1602139342961684,-19.133577846649327
2023-12-11 13:29:41.074619,1.055951488541352,2.384737989818249,-1.482300493828165,-21.19570797362237
2023-12-11 13:29:41.093618,8.721214401310425,6.952276418423954,-3.8259619822815716,0.08126592563419062
2023-12-11 13:29:41.098617,-0.707212174561987,4.147778496563949,-1.7085535561118226,9.447985536711725
2023-12-11 13:29:41.107617,1.2696041127792506,-2.420623870899946,1.8423320500265816,10.251987797666944
2023-12-11 13:29:41.128618,3.8507903088628135,-4.948763295186662,2.0094066939964037,-8.761949187038581
2023-12-11 13:29:41.181621,7.41739585797241,-4.162956396014351,2.025499960514994,-12.47752781375584
2023-12-11 13:29:41.217616,17.004068441814,0.2804935970531013,0.567277859738365,17.927407539432473
2023-12-11 13:29:41.242617,18.447896406108704,2.9152293993219023,-2.9669472317701953,19.816989674057623
2023-12-11 13:29:41.250618,10.727189384485982,-1.0493295669567102,-2.7209786007167875,-2.659142715593642
2023-12-11 13:29:41.262619,-2.3310767425229524,-4.770219662612429,-0.05709926457764612,-12.566109875882685
2023-12-11 13:29:41.297618,-5.057552773414842,-2.7157306047337135,-0.4173325889978508,-14.67436929757204
2023-12-11 13:29:41.316615,13.399332045298731,0.9421222423991863,-1.676413745255078,-1.80841065910589
2023-12-11 13:29:41.325618,27.728580947868267,0.5920170023473715,-1.9198166411367155,14.680172270267487
2023-12-11 13:29:41.362619,11.653143348216481,-0.9276310713733722,-1.5371179869886704,5.548303481019158
2023-12-11 13:29:41.365617,-12.524221352392729,0.15369702458758314,0.9386773180421591,-22.264808086285406
2023-12-11 13:29:41.374623,-11.493048191802924,-1.9652468848983105,2.8672904070456697,-35.49845391708957
2023-12-11 13:29:41.382614,0.48788697319026686,-8.180363621902854,2.4778241176480367,-17.854145056710507
2023-12-11 13:29:41.407654,8.752520341107909,-8.718826327933902,2.0818572450649224,5.202985366703653
2023-12-11 13:29:41.417614,9.934365085251956,-4.3975307695502925,1.1078967359687792,7.027380137026418
2023-12-11 13:29:41.430648,-9.48697915849625,-5.887703653218694,1.7288717057554566,-4.456443145113982
2023-12-11 13:29:41.440622,-21.39751891829886,-11.914423452011457,4.814174522064972,-14.03350505744793
2023-12-11 13:29:41.460615,-5.868504384132111,-12.29193820841723,3.685778947692426,-11.040309984316403
2023-12-11 13:29:41.475615,1.124851232504053,-7.525315548780809,0.9463171390178838,5.198443551187925
2023-12-11 13:29:41.493618,-5.746991137332338,-6.8655346494737355,3.5354032433279046,10.720047504131864
2023-12-11 13:29:41.527617,-9.412722576881288,-8.534437146399869,4.784150078589713,-4.062723721158709
2023-12-11 13:29:41.547623,-8.567722780733593,-4.291738093089173,-0.07821373880622068,-15.144780705801127
2023-12-11 13:29:41.550618,5.393955074379392,1.1757347906200588,-2.996606109046668,-3.29240399675632
2023-12-11 13:29:41.557622,15.360837387063913,1.4606398071917486,-0.3820281245964056,21.089666480289768
2023-12-11 13:29:41.565615,6.1483525228750615,2.305098203374111,-0.28404367004628506,25.000702855308905
2023-12-11 13:29:41.581615,3.6749592858790847,5.470282719848793,-4.551474773600534,7.089915785938118
2023-12-11 13:29:41.599618,15.427053610665192,5.387640451434073,-5.399969668666063,0.17531727498418967
2023-12-11 13:29:41.605639,26.6407058084159,4.04563662355072,-3.699039468535166,15.616226787287058
2023-12-11 13:29:41.630618,24.73518216299668,3.797008696200457,-2.306450932528261,39.54601994824456
2023-12-11 13:29:41.651614,13.920945427310517,3.1619932872784604,1.5824023265330727,40.13603779175976
2023-12-11 13:29:41.674619,8.721074609684965,3.4783857367511652,3.2276179873135145,10.479964100646065
2023-12-11 13:29:41.683616,-2.833137230929274,2.6833073959794427,-1.1188638227346532,-7.962986246692657
2023-12-11 13:29:41.698614,0.8543212553074212,1.12258306817215,-4.394451668315923,14.988469314854784
2023-12-11 13:29:41.706622,34.21631407311781,1.6493741856537405,-2.1086618791922476,52.08788435430976
2023-12-11 13:29:41.715615,31.951217935710307,1.7627049290196701,0.5895289272845567,39.20088717649952
2023-12-11 13:29:41.725617,4.490727690824774,3.037524011643952,-1.7906914440580504,-7.122752974627015
2023-12-11 13:29:41.739631,6.5198812573468095,2.349305505608888,-4.202099564483795,-15.346103043246462
2023-12-11 13:29:41.760613,12.024941443309913,-3.961824878908138,0.4009015324059487,2.0023605618340232
2023-12-11 13:29:41.763616,21.285604736362927,-4.2751757096856196,4.871649398568008,21.754313127350677
2023-12-11 13:29:41.763616,30.07494549642787,1.1148061633557285,1.3202406364027455,36.01393083228114
2023-12-11 13:29:41.764615,0.7263591716658307,0.3110540558301395,-1.522803880130255,17.289540818172547
2023-12-11 13:29:41.764615,-30.427684878529668,-2.766896056118522,0.9304438142433499,-11.502867871315203
2023-12-11 13:29:41.764615,-27.997977545614628,-2.2022428615325538,0.6910619621375509,-21.995685900729327
2023-12-11 13:29:41.765617,-11.933133577094653,-1.0205533768412298,-1.3875209386110656,-12.39839161356105
2023-12-11 13:29:41.765617,-2.539643914957067,-2.0930375221335904,-2.2257034720369258,6.84326856646933
2023-12-11 13:29:41.770620,-14.19855757479161,-3.986394062843389,-2.678533552590349,3.347716694752078
2023-12-11 13:29:41.776617,-29.43736086358702,-2.334631013329639,0.4829444444142102,-11.524479672408967
2023-12-11 13:29:41.776617,-14.790069277520903,-0.5861631649077974,1.9050398557397965,-12.610069152710059
2023-12-11 13:29:41.776617,14.035241343449977,-4.2979762011550315,-2.9087493877398645,-8.881305332222327
2023-12-11 13:29:41.777621,19.63891590723619,-5.586193065059706,-4.980641805833849,0.6938303949953661
2023-12-11 13:29:41.778617,11.751000542167082,-3.003801475810227,-2.9069282470825253,9.568361194360925
2023-12-11 13:29:41.778617,14.410432487008267,-5.067588746586253,-0.9729838851572613,4.213676755422163
2023-12-11 13:29:41.779622,15.429498291941137,-6.171606905573211,0.9808699675888085,-5.391903137927291
2023-12-11 13:29:41.779622,7.18983777266871,-5.508924207625702,-0.5838877292140483,2.683186660170715
2023-12-11 13:29:41.780616,4.5429582492800265,-8.225004337896436,-5.830053291899394,24.524878934403876
2023-12-11 13:29:41.780616,10.37572946688346,-7.155502788974102,-7.361024921132119,23.660439992795947
2023-12-11 13:29:41.781615,6.92723687557268,-6.070104603272541,-2.2973577672639998,3.055593586407865
2023-12-11 13:29:41.784617,-2.995015687165055,-7.1815802744424415,1.96457236106596,-7.399736033182241
2023-12-11 13:29:41.785622,5.102985337722969,-3.8527043677949324,-1.3994246286304897,-0.6136211452319363
2023-12-11 13:29:41.787622,10.460698305748888,-4.927362354164053,-4.732480701951787,22.067028326289527
2023-12-11 13:29:41.788626,-1.5154345280520014,-7.258269570274321,-1.7395635278688841,17.60945065153861
2023-12-11 13:29:41.789648,0.3922604655603552,-3.4924906486617258,-1.0379151516282896,-25.991099754429236
2023-12-11 13:29:41.790622,2.401901610880939,-5.29787811879875,-2.8812307790871006,-34.556870518945324
2023-12-11 13:29:41.790622,-10.454265059888508,-8.893059986814283,-0.3676090408204216,-4.092996501464117
2023-12-11 13:29:41.791615,-3.9987851441112268,-6.863496043327361,-0.019218174630476897,10.656398271012856
2023-12-11 13:29:41.791615,7.874933389030973,-5.939836707344186,-3.649991486381984,10.032120142085331
2023-12-11 13:29:41.792615,-8.399356649989015,-5.392358331952834,-3.1130000493626953,0.038436514989714586
2023-12-11 13:29:41.792615,-19.797432871487874,-5.243719547218761,-3.587224553707345,-8.810284257192162
2023-12-11 13:29:41.792615,-6.037137398107032,-7.10981985630069,-10.669541137241223,3.339278403848978
2023-12-11 13:29:41.795616,5.925034130798839,-6.0709549220360834,-13.277919142031939,16.616549181961208
2023-12-11 13:29:41.796615,8.782274431834143,-2.6154782528115175,-7.346613493106231,8.441446329807077
2023-12-11 13:29:41.796615,3.71274526692816,-1.4744297747754187,-2.771165235030899,-9.993969451313935
2023-12-11 13:29:41.799615,0.6057664337079657,-4.057667541304216,-0.26128585715325225,-13.472901590642774
2023-12-11 13:29:41.800615,12.784445084209091,-5.9143333535860325,3.2360195072989684,2.7490802635929414
2023-12-11 13:29:41.800615,18.560374336422907,-3.453669476820984,1.6038651324024598,18.300802370973607
2023-12-11 13:29:41.801617,8.402618137494073,-2.6606941918433447,-4.445123641239322,14.891470613489384
2023-12-11 13:29:41.803620,-6.992791153827282,-3.2803948666685128,-6.32928101800473,-13.488095620481486
2023-12-11 13:29:41.804621,-17.404194784341346,-1.078392964876655,-4.02704221224543,-35.457891975454984
2023-12-11 13:29:41.805645,-4.389786504471405,-5.1673930405223,-1.346988694949261,-20.695453169819814
2023-12-11 13:29:41.806621,12.303252341726823,-11.456537017099215,1.3959155180208438,0.5036040925106477
2023-12-11 13:29:41.806621,4.065650507343271,-7.722535649739844,1.878604987842674,5.348177623696379
2023-12-11 13:29:42.366614,-10.109085082501375,-7.240090103221918,0.9375521845040712,0.2585557481827747
2023-12-11 13:29:42.432613,-15.994324801754573,-12.472432779840254,2.5659753233546065,-13.246611023493118
2023-12-11 13:29:42.445617,-13.468807443641492,-8.071514418659783,1.6114417693638778,-18.88294198619441
2023-12-11 13:29:42.462616,3.2032629088873144,-0.3774432550328133,-0.027121833497977088,-6.911267505848118
2023-12-11 13:29:42.480617,9.557123443525894,1.982753275887771,4.905986144910235,6.093215058548845
2023-12-11 13:29:42.486633,-12.856930754308946,-0.5308636336174065,6.3118886092793005,-0.3219327316759404
2023-12-11 13:29:42.506620,-20.89064486865943,-5.348295718097235,4.161548015108397,-11.591641051136634
2023-12-11 13:29:42.515615,8.147612768849317,-2.215695253201406,4.169820572151766,-0.3006758952192903
2023-12-11 13:29:42.540619,27.719613130023998,3.9868999676905377,-1.5335176983318977,8.787092867928097
2023-12-11 13:29:42.560617,20.9501396078318,3.763528576727869,-2.744419251701595,5.965376365711249
2023-12-11 13:29:42.569619,17.92303823730472,5.686190768768954,2.10021613307547,6.183129789240199
2023-12-11 13:29:42.598614,18.25897280442491,8.499829628546015,-2.1513531695854664,-6.805491830234427
2023-12-11 13:29:42.640619,8.519475553849349,5.38796122699483,-2.7004961038898916,-15.241793762870856
2023-12-11 13:29:42.643619,0.3878961724237309,2.0043941198073165,2.109687613947233,-5.46620900333046
2023-12-11 13:29:42.657623,1.8329114953723078,1.2109094301739762,0.33003752781536816,3.3786920343839726
2023-12-11 13:29:42.680615,-0.2769592000505081,3.4116681374459885,8.045245603306117,9.018346251113877
2023-12-11 13:29:42.696616,-15.615953978887507,4.233177947410396,20.77017850702507,-9.541522588230887
2023-12-11 13:29:42.734620,-22.44284095292029,-0.441731498562852,14.973883324996843,-27.003134652338698
2023-12-11 13:29:42.738617,-4.757372460515518,1.511151332842129,5.826130074038549,1.6288833796171547
2023-12-11 13:29:42.745614,2.3034753463725712,8.324771092646067,7.01810066780002,19.012451918924196
2023-12-11 13:29:42.756615,-16.86121090475063,5.874878648021466,3.9471842131012815,-4.85903371538792
2023-12-11 13:29:42.763616,-24.047586017899462,5.9554197263108035,1.1318460953781408,-26.972031690539723
2023-12-11 13:29:42.788618,-8.409492929199414,11.401793261048002,8.892577931282894,-31.588092231889863
2023-12-11 13:29:42.804622,5.834664563991968,3.9108911280418526,14.268005364646987,-7.832826474172211
2023-12-11 13:29:42.815616,3.38359041818427,-4.634315256495608,15.504757138891534,27.241140302935836
2023-12-11 13:29:42.839616,-4.705064510013219,1.6487746235875518,17.93321505037898,27.722946761967208
2023-12-11 13:29:42.862616,0.38843538432207836,6.141794426116487,14.84099998167121,-4.189110691945976
2023-12-11 13:29:42.877616,-4.519015706753185,1.5465545413164494,10.374435180103099,-34.200468041255206
2023-12-11 13:29:42.889619,-16.149845620596633,-0.11411238217579422,7.025330770156392,-25.693120173354483
2023-12-11 13:29:42.899614,9.322978809775138,6.861226627076949,-0.35094777436244906,11.887736556990765
2023-12-11 13:29:42.916615,25.936849200227172,14.57655958938803,-0.5861612652192583,18.413018204862453
2023-12-11 13:29:42.929616,-3.2550478107879552,8.7760349203791,10.668142488828888,-1.9661342535818949
2023-12-11 13:29:42.942617,-14.387470602485857,-0.1497113866014753,15.833780524238286,-9.685857782394034
2023-12-11 13:29:42.960620,-5.593366482764053,4.528418587028443,8.572586059583541,-8.112204913623613
2023-12-11 13:29:42.980614,-10.643829693411183,9.02688247654743,1.434354375496318,-0.8989481255939757
2023-12-11 13:29:42.998616,-6.689276355264529,7.7546538938462275,1.7604500715918483,1.255661794592277
2023-12-11 13:29:43.040619,-6.7001879057714655,7.964081664228564,6.053149475970521,-13.502082433085043
2023-12-11 13:29:43.044619,-19.637264228748794,7.223041251730371,6.798465157225284,-32.56655339937825
2023-12-11 13:29:43.049614,-4.795078999355577,11.182449730890594,0.879668932801609,-34.11980011256422
2023-12-11 13:29:43.063614,10.23665356071293,14.11493361288253,-1.2841255242201877,-5.833595355865105
2023-12-11 13:29:43.079614,-22.192778294395332,4.272255466835663,2.966064316231027,7.286781238281147
2023-12-11 13:29:43.109616,-51.1688376173314,-1.9602867880029804,-0.35347526475962593,-25.09331202559267
2023-12-11 13:29:43.120619,-34.91622215124947,2.61018791696241,-7.509489090283388,-44.56062095416838
2023-12-11 13:29:43.161616,-7.728974865783583,5.073317661987865,-4.636168692203873,-18.4187531189002
2023-12-11 13:29:43.164615,14.806475900007374,8.057570253999813,2.1813085380430945,12.744058680571879
2023-12-11 13:29:43.175619,21.871698806300582,14.328396035336626,3.837450863475609,7.550750627547147
2023-12-11 13:29:43.199614,5.609482801431698,16.06483268700348,1.0498233511676553,-12.358567922064678
2023-12-11 13:29:43.206614,6.806659819983993,13.247045335529904,-1.8135613202834542,-4.2429999629168815
2023-12-11 13:29:43.249618,21.786621304221185,7.826992590731985,1.462553874420722,5.172728325338546
2023-12-11 13:29:43.257622,20.54687747640187,2.764037371970682,7.003590590458803,3.4562113842099276
2023-12-11 13:29:43.264615,12.91106825269634,4.083335137933115,4.234395543613262,14.077310251678018
2023-12-11 13:29:43.275614,-7.042095848460797,7.8486154368723,-2.5526825588554938,9.779120197149416
2023-12-11 13:29:43.288620,-17.532739118904576,8.739673640158193,-4.562259348276343,-11.2448846037184
2023-12-11 13:29:43.305616,4.551585293332558,7.507541233434315,-5.494988496913782,-15.904480062659697
2023-12-11 13:29:43.310615,13.214545221946763,3.8465537961190512,-5.899422221847847,-0.044335922072919254
2023-12-11 13:29:43.311617,0.4222106461243643,1.9143533096332896,-2.7368493860040646,20.966070486986926
2023-12-11 13:29:43.311617,-1.3138570185419278,4.591147191532399,-1.415656047336418,12.19026459483333
2023-12-11 13:29:43.312618,-2.978698467308421,4.435950532395819,-1.6843721928677815,-10.980278406173092
2023-12-11 13:29:43.312618,-11.34335852458107,-0.24229421996331307,-1.3757102642041557,-9.547104730908005
2023-12-11 13:29:43.313617,-3.3124167523936108,-1.9650444589359732,-4.086513547520694,-5.444337461142359
2023-12-11 13:29:43.318619,11.74682002777116,0.37285474450908607,-4.4080425325529635,-3.1322072083187145
2023-12-11 13:29:43.319623,1.7114037278595655,3.6309268534778165,-1.7019268318236245,-5.725474622628858
2023-12-11 13:29:43.320636,-21.1701594596534,3.99641098025058,-3.0240904141564977,-26.66191127087473
2023-12-11 13:29:43.320636,-25.141999214415844,-0.8094674029914511,-4.8144329323159525,-32.67648372553652
2023-12-11 13:29:43.321617,-7.507184669736276,-3.7802887246627277,-3.291545326257609,-15.415100996010075
2023-12-11 13:29:43.322616,5.724028203370464,-4.074537181326546,2.4247128495327352,13.980872829060486
2023-12-11 13:29:43.322616,-8.395265969642491,-9.031433333860702,4.724069601933314,20.760349617360493
2023-12-11 13:29:43.322616,-29.695465779323463,-11.465620470423493,-5.216443235020533,-25.628640257799912
2023-12-11 13:29:43.324616,-27.52696016837119,-5.012516870792384,-10.288427403039945,-39.21676655261927
2023-12-11 13:29:43.328616,1.0776729360949637,-0.9456871851720824,-2.893447550160683,1.944960423835623
2023-12-11 13:29:43.328616,26.619007366707766,-1.1992628410616493,-0.6697662229864819,15.021282470902277
2023-12-11 13:29:43.329616,15.735734413575342,2.5891758378003393,-4.2199290284945965,10.296082679396122
2023-12-11 13:29:43.332615,-3.8831444553699423,1.8094645794854565,-3.994195285694483,3.05332280681752
2023-12-11 13:29:43.332615,0.018844748633132104,-6.8016653075854565,-2.343490738336658,-11.426779876588878
2023-12-11 13:29:43.335726,10.857156279147322,-7.7807876575889345,-5.277769776255662,-3.4966521392996635
2023-12-11 13:29:43.336629,20.651850900425877,-3.893264950224045,-8.578284426546663,12.115560532655572
2023-12-11 13:29:43.337618,20.328155496181964,-5.403089628510195,-7.211886112597454,19.70218351262512
2023-12-11 13:29:43.338617,5.47813079737151,-5.861937905081372,-6.865946033342901,16.76869800909215
2023-12-11 13:29:43.338617,1.778844125256529,-4.197578565938863,-4.76215227048202,-0.014068206931683543
2023-12-11 13:29:43.339615,10.47574877721824,-4.2116838140154025,-1.5427420549328048,1.541940415550069
2023-12-11 13:29:43.339615,13.061112180173625,-3.2519926451750996,-3.832315100661119,16.792328859203135
2023-12-11 13:29:43.340616,11.968345968959518,-1.4333554905662833,-3.986387145052387,13.996292631297154
2023-12-11 13:29:43.340616,11.590796450071503,-0.9570717251204897,-6.984535069715785,3.1413014932465284
2023-12-11 13:29:43.340616,6.708113528493334,-1.7266718391627338,-14.607020054298646,-6.10814300752445
2023-12-11 13:29:43.341615,-2.5176827330685514,-2.8257859889966515,-11.927083160017538,-10.91216838212606
2023-12-11 13:29:43.341615,-4.547254331913321,-3.3121089433612383,-7.3842081430494275,-4.608783951867587
2023-12-11 13:29:43.342618,2.2078808814144004,-3.1178393044147152,-8.600582301716697,1.763461255580906
2023-12-11 13:29:43.342618,2.301816333711882,-3.050046628350079,-6.193382901391036,0.6736878613351603
2023-12-11 13:29:43.342618,-5.264059027816179,-2.208326979941706,-0.27830981295627355,-0.6684525030991643
2023-12-11 13:29:43.343619,-9.395649722196048,-0.2055682646230281,3.941297080224343,1.072515840745648
2023-12-11 13:29:43.343619,-6.048577861724035,-0.4840807869844166,3.747905809302925,1.3051772318222619
2023-12-11 13:29:43.343619,2.4589625424760144,-2.0403744081064596,3.023344333046234,-4.357296116618145
2023-12-11 13:29:43.344616,2.2255625384774382,-0.8693191143581851,3.518339923253397,-6.882829031926727
2023-12-11 13:29:43.344616,-4.2422742648341325,-0.3792196622302542,2.0026630175551294,-0.17865027955431448
2023-12-11 13:29:43.345614,-1.3734201445796874,-2.0636449039689,2.252410539290411,2.179490476756778
2023-12-11 13:29:43.348617,-2.5870493852066225,-1.7560508403458128,1.8067487810977956,-1.744188047426412
2023-12-11 13:29:43.503619,-8.198334066473084,-0.750541310907452,-1.3293298859233216,-1.4544377763804408
2023-12-11 13:29:43.590616,-1.8467027168154113,-1.556876923775373,0.5456926287361294,2.0984740268345106
2023-12-11 13:29:43.813618,4.380763331888104,-2.2635862135279687,3.121671839823219,5.407269932463707
2023-12-11 13:29:43.884621,7.020677500662436,-2.0711933312709534,1.8497281502837075,6.80095571190385
2023-12-11 13:29:43.939616,8.895783347234916,-1.9510896677446345,2.49391853596653,7.291707297090994
2023-12-11 13:29:43.953622,4.239725660087633,-1.6581045129648069,4.765064811894875,6.321917409687932
2023-12-11 13:29:43.977615,3.2938980688520245,-0.21549341096592348,7.1835222413978626,4.193179940152311
2023-12-11 13:29:43.984641,4.825436668640242,0.9938449393353516,8.273935604061876,8.811678767384805
2023-12-11 13:29:43.995622,5.102350699908906,0.44021374823317533,5.924538708877425,13.888117093863643
2023-12-11 13:29:44.024616,9.604206591706859,0.06035813200992585,5.337403485339195,13.742190370128645
2023-12-11 13:29:44.037618,8.001166585216946,0.4750361631691554,7.018273635132148,15.683458737322704
2023-12-11 13:29:44.050625,2.093635396414847,0.701261562830584,5.316325041848839,10.547004264382966
2023-12-11 13:29:44.114627,-1.8514132242049568,0.6247805668743353,2.574190202037956,-1.426644677886617
2023-12-11 13:29:44.122622,-7.097036427676855,-0.770756702348791,2.903204455441679,-2.493151389813444
2023-12-11 13:29:44.127623,-7.022282499700582,-2.390795872386545,3.4202137411168168,1.168841811843734
2023-12-11 13:29:44.138615,-4.993203735864827,-2.397008849881884,1.9957440237274662,0.7521814475845954
2023-12-11 13:29:44.155613,-4.543853999768256,-1.7041386093059046,1.289916820090476,4.08386492016907
2023-12-11 13:29:44.177631,-3.028839474975267,-0.9821321355781069,1.2285990354448366,6.759098553007861
2023-12-11 13:29:44.203618,-4.083562051984193,-0.5694050536223131,1.5040444628739549,3.355555920874077
2023-12-11 13:29:44.222615,-1.9068638334651233,-0.25319832513664503,4.269763698282021,2.851068554484759
2023-12-11 13:29:44.233674,0.20695925393685036,-0.08127338740644655,5.201050054729974,3.1546059675061295
2023-12-11 13:29:44.245615,-3.5503692785270555,-1.1669189575334349,2.0925169298673243,-0.0403649094767313
2023-12-11 13:29:44.261619,-3.0243508450533256,-2.065477514343119,0.3878038043406883,-0.1373079946743665
2023-12-11 13:29:44.293620,-1.8331572089636383,-2.1838057959568458,-0.22282818429228643,-0.5361683281645641
2023-12-11 13:29:44.342616,-4.52329313570526,-2.126377181073513,-0.48135390664383365,-1.2147784897337914
2023-12-11 13:29:44.376618,-4.094548130158387,-1.1063195454335193,1.6910594094077636,2.012234372559998
2023-12-11 13:29:44.379615,-1.027637329698133,-1.0105061070101466,2.5671042319706636,1.9390396974583692
2023-12-11 13:29:44.391618,2.3713319438581286,-1.0820894768688853,1.6159272544535508,4.571545650409927
2023-12-11 13:29:44.409620,2.034553170731911,0.6138173920986495,1.990348652531116,10.805293030796786
2023-12-11 13:29:44.417659,-1.485807515243154,0.597406987312182,1.887022755702884,5.218920814527971
2023-12-11 13:29:44.434619,-0.6088548765650357,-0.007052787613464021,1.062748992325475,-1.0625184293862602
2023-12-11 13:29:44.447614,0.906779182464273,0.9910398106760856,1.123546081572477,2.2110804507048623
2023-12-11 13:29:44.464613,-0.6584393862380493,0.6423666623349442,1.3450575493289583,2.375046160108503
2023-12-11 13:29:44.488619,-0.265113260549709,0.36695917254407123,1.6281206541834583,1.2087117771187204
2023-12-11 13:29:44.500621,2.1441405708479238,0.9621485528886206,1.617314018002272,1.8989425275509018
2023-12-11 13:29:44.517669,2.506533620423546,0.5179826259673675,1.0494879257839116,0.15121923526398207
2023-12-11 13:29:44.571618,-0.7711405090463661,0.6887080962807934,0.8902214453606294,0.6906309965172152
2023-12-11 13:29:44.575622,-2.8037223179565696,0.8392074466936376,0.5499677935401258,2.158573961485206
2023-12-11 13:29:44.581612,0.4432876397667063,0.3850641735626461,-0.6312078380497319,0.2570732912309145
2023-12-11 13:29:44.593619,3.4732921133215124,0.7533341928120496,-1.1314772715787451,-1.0471460288708259
2023-12-11 13:29:44.613615,2.091694185296236,0.038225399619814145,-0.3736412427649067,-0.9484317165924082
2023-12-11 13:29:44.624615,-0.7269180773243371,-0.7316198213563494,-0.18495955191577976,-0.9160454069219858
2023-12-11 13:29:44.633624,-1.398204083512802,0.4078019087328554,-0.7393694555939772,0.07200101653124209
2023-12-11 13:29:44.660614,-0.4684058752795946,0.6183305169120847,-0.4819545604967417,1.4512373988404217
2023-12-11 13:29:44.669622,0.3011183593083135,0.036766332036187975,-0.46066740852819316,1.745391594461888
2023-12-11 13:29:44.696619,1.53920189320489,0.21995604893475654,-1.3549958046914095,1.283679362252624
2023-12-11 13:29:44.711617,0.9408790687858237,0.04202128588477002,-0.9609883084779284,0.7312188393091757
2023-12-11 13:29:44.731614,-11.898029847256844,-0.7558583723700565,1.9821391204544114,1.6789877346297943
2023-12-11 13:29:44.741619,-12.822514767907924,0.2236929577904048,-1.2161891968797316,2.5594793385929235
2023-12-11 13:29:44.751620,-3.4085925037490883,0.09567985393728873,-7.431084203762423,1.7827881986042233
2023-12-11 13:29:44.774618,2.002522300303322,0.5078393530924593,-4.212294341255922,-4.18889203448918
2023-12-11 13:29:44.828616,9.993931202123457,0.6358200351102059,-3.999272087139148,-7.176854910588866
2023-12-11 13:29:44.830614,11.732176095785544,0.36265816486947977,-9.985863052120061,-12.661629972960501
2023-12-11 13:29:44.843620,9.6271639917614,-0.361420297844243,-9.345316830395417,-12.254639194677122
2023-12-11 13:29:44.851619,6.636450688161647,0.05919406446168729,-6.106743767653135,4.62136949152485
2023-12-11 13:29:44.862612,-5.922751928552129,0.5150164562555208,-4.947258054885184,1.7460302341020326
2023-12-11 13:29:44.880622,-14.887300280017103,-1.0488943121635004,-0.06695137340559473,-21.119901731694085
2023-12-11 13:29:44.894617,-6.240010993440068,1.419426613768844,1.477510442662256,-12.518156391357278
2023-12-11 13:29:44.906614,8.138260896453314,3.971906792738626,-5.547157550012994,10.623576677148433
2023-12-11 13:29:44.916619,6.194989021163539,3.3831971758006167,-11.498674960959322,1.7358110050422182
2023-12-11 13:29:44.983650,-9.055055079340756,4.744753658920378,-12.646978007116706,-15.692370020039885
2023-12-11 13:29:44.986619,-13.423375176663518,0.4712920633276496,-11.541330089314512,-10.195467441626638
2023-12-11 13:29:44.993625,-5.930765669048786,-3.460134604709021,-5.356788296665542,0.5208592398091535
2023-12-11 13:29:45.001617,3.674801917472221,2.5075378455825157,3.175434712367409,-0.7490307571375708
2023-12-11 13:29:45.013615,12.044440858674843,2.8340008035041775,2.8810441940941423,-6.852631474351347
2023-12-11 13:29:45.027615,6.856900566429171,-0.9826496476834571,-3.193702077099621,-9.57167301644045
2023-12-11 13:29:45.042616,-9.425386054479722,1.665383725198259,-4.708008913435909,-5.779945468154622
2023-12-11 13:29:45.068615,-12.616209619066364,3.456404289249092,-4.37996501452634,4.964977900118623
2023-12-11 13:29:45.079620,0.47417911273233054,6.140044852813066,-0.38545710436960245,20.351877431851467
2023-12-11 13:29:45.104620,6.031497129224313,9.808593163118555,7.924684093530701,27.36699242372455
2023-12-11 13:29:45.127614,-1.8516646914306418,7.709116476054923,5.115165042460723,14.27421150445429
2023-12-11 13:29:45.142618,-3.9774918940916932,4.866414683588404,-7.79989545181623,-6.604000675313593
2023-12-11 13:29:45.199621,8.481958002156718,4.754857269547945,-15.79068823144076,-23.463316699240842
2023-12-11 13:29:45.202618,20.52572670516845,6.317146919772039,-18.35965809532541,-23.95931123227669
2023-12-11 13:29:45.206640,16.15975336978491,7.035348264911017,-16.339134999460487,-6.068384568259544
2023-12-11 13:29:45.216665,8.29069523913086,4.874288351804996,-10.814207500093486,-7.992102692538197
2023-12-11 13:29:45.230615,5.318015653665306,4.092867777371296,-6.106616702615229,-22.959907170840836
2023-12-11 13:29:45.290617,-1.891004245386084,5.456329680195195,-0.4074112902578359,-15.8586092784165
2023-12-11 13:29:45.294619,-3.0858004310182467,7.018978406492197,1.1605892247414122,-10.72831317063438
2023-12-11 13:29:45.296617,-5.663572996884802,8.249815556903936,-3.5644590839999934,-8.392851756756722
2023-12-11 13:29:45.308615,-14.419049258113441,7.993908491071165,-3.4816764048486157,-4.550505745723896
2023-12-11 13:29:45.324617,-3.410961910690665,6.675906864157115,-1.0453900813180779,-24.31285684081797
2023-12-11 13:29:45.343614,3.8446355203126776,5.254015269942763,-4.797447882971433,-29.962572545017284
2023-12-11 13:29:45.360614,-9.448498905928497,5.6177640564725895,-7.482580795060281,-7.768957228856346
2023-12-11 13:29:45.408619,-3.2677903061134335,6.542746505977084,-2.994364655269649,-3.4498272758261788
2023-12-11 13:29:45.411615,9.290205174870563,6.857282757281172,1.418892669825976,-11.229649879136465
2023-12-11 13:29:45.418621,-1.6427522208109007,8.742703185620792,0.34476677286597895,-16.984895427722318
2023-12-11 13:29:45.430616,-8.23894744591354,9.331025346663614,-1.3398356795040265,-19.867471847356992
2023-12-11 13:29:45.445614,-5.042529162856795,6.285735406910643,-1.767676579496208,-8.311705307755528
2023-12-11 13:29:45.461614,-2.5830521084526246,0.8203082010205407,-3.980024988044596,4.3895775710226745
2023-12-11 13:29:45.479616,16.011280482974147,-1.9061132103311131,-6.823502077690212,4.380189572570962
2023-12-11 13:29:45.495615,29.17325424266487,2.752315770420739,-8.516954434825625,-3.804596392030938
2023-12-11 13:29:45.513620,13.640623218271367,6.675502778063187,-6.80860674771728,-3.5725516437590565
2023-12-11 13:29:45.529616,2.320062954590746,6.492340445798603,-1.2619534684452807,11.005982203271941
2023-12-11 13:29:45.545618,4.862156681066926,6.2168971394182595,1.441833537898413,12.146177778296392
2023-12-11 13:29:45.564618,10.71755360807925,3.7498728633427865,-2.0926303800835786,0.014594578952633327
2023-12-11 13:29:45.629621,20.501953661788793,0.9197355083712396,-4.328836755617362,-5.082192572787793
2023-12-11 13:29:45.633621,13.904138560051196,-0.37023651819759723,-2.5263879214471356,-14.471165017584426
2023-12-11 13:29:45.639620,3.787946485377689,1.6217342672112176,-7.423560253957972,-17.4403929507878
2023-12-11 13:29:45.647620,15.37855170075931,4.785617601550154,-13.940859951313817,1.5594651527921928
2023-12-11 13:29:45.660615,15.310265387558612,-1.8951440958567098,-7.310753589573983,9.80008214293254
2023-12-11 13:29:45.682621,-0.7967961978074161,-9.032975561529897,-0.10258375913046264,-3.111777402978748
2023-12-11 13:29:45.716618,-4.243433544465117,-5.041937793275895,1.0163332478758107,-6.766815536481671
2023-12-11 13:29:45.762614,-6.372508418994922,-5.818018534994028,6.235246748505509,-2.1884990615095843
2023-12-11 13:29:45.766621,-6.939915985840326,-13.64804245866886,8.329177932023894,-4.292005349548942
2023-12-11 13:29:45.770617,-0.672212822144788,-13.54005484691996,8.571824237461833,-3.1315966541383986
2023-12-11 13:29:45.789618,-9.028508603201136,-8.335920319398323,15.579994595552156,-2.8838680452455554
2023-12-11 13:29:45.809615,-23.222687070598123,-6.036727297971822,18.209530748582758,-12.00435037595212
2023-12-11 13:29:45.851618,-20.162934274799827,-7.071012922984164,14.32579792529032,-11.023332827534961
2023-12-11 13:29:45.855620,-10.097974711976468,-10.587959441057036,12.437198884296391,3.197522109671131
2023-12-11 13:29:45.859617,-8.215859418134142,-12.021171439137863,11.10666894055398,8.121117764455647
2023-12-11 13:29:45.872618,-8.898458586902958,-7.976826532377259,9.144888250305453,-2.671544425749137
2023-12-11 13:29:45.893615,-4.926125689498593,-2.365935773349378,7.491671911832533,-10.612516074144763
2023-12-11 13:29:45.909615,-3.456203044175194,-0.8502767348031558,4.981412287129839,-2.6380882984615868
2023-12-11 13:29:45.923614,-5.86110666538472,-2.638902226838692,1.8228772891308493,5.1338033101225635
2023-12-11 13:29:45.934618,-3.251055078917949,-3.808451635009069,0.9009073485945972,4.010542457649221
2023-12-11 13:29:45.960615,0.06449700568748236,-6.45643422587903,4.340670510449355,2.154744375117892
2023-12-11 13:29:45.975658,-3.0154416072629084,-8.947361794766614,7.412436074610312,-2.4437529010099657
2023-12-11 13:29:46.009617,-3.073073186928114,-6.883034654534409,4.686643125971409,-3.9324932562783745
2023-12-11 13:29:46.028615,4.109429679929757,-6.499803458009095,-0.10016738145748215,3.79226031060432
2023-12-11 13:29:46.043614,6.856807234348421,-7.817786930564863,-0.9976190664231149,11.753961985105818
2023-12-11 13:29:46.051621,4.572734114479515,-3.206265087530746,0.46991374785556267,11.915473373607703
2023-12-11 13:29:46.061612,2.2288492809595453,1.782043691648665,0.540104598253958,5.560956462200239
2023-12-11 13:29:46.083621,-5.315693455959877,0.15276253062932235,1.358446770598579,3.031141497846107
2023-12-11 13:29:46.109621,-11.514105873118302,-3.947540850952965,3.93979281639665,1.574444909947183
2023-12-11 13:29:46.144615,-7.904492379019503,-5.588738051638902,3.61032215333782,-3.5199744778738467
2023-12-11 13:29:46.160614,-2.6253066464106336,-4.545162099946317,1.304383401866257,-4.727082477984659
2023-12-11 13:29:46.172622,1.4226731865998017,-3.0445905391224275,0.09212877095010269,-6.518194912972089
2023-12-11 13:29:46.185616,4.863209627073379,-2.4966520694830123,-2.059721915062465,-6.9852340995251305
2023-12-11 13:29:46.210616,4.494711764312306,-2.8036306206932173,-2.470258429218131,2.011107487440039
2023-12-11 13:29:46.211616,5.908238702439424,-3.22799053435305,0.3603013314955218,13.518414811115267
2023-12-11 13:29:46.211616,9.108541463136701,-2.398289501426775,1.337058555481283,17.984439027402576
2023-12-11 13:29:46.216620,7.94921275750071,-1.6896970752914773,-0.19311338253909868,10.558235591384678
2023-12-11 13:29:46.217621,7.8115295017584,-2.631931878724747,-2.2838734977329658,5.313300081027772
2023-12-11 13:29:46.217621,7.9003163873536115,-2.2387737965541974,-2.537747343312436,11.880808835397564
2023-12-11 13:29:46.218622,3.180773625101557,-0.7079220335724414,-0.20288552380388708,16.065610657792895
2023-12-11 13:29:46.218622,2.6985134335681455,-0.28577440658285647,0.5744583408753466,14.927483531858467
2023-12-11 13:29:46.219621,6.043375631689562,0.7780794346941684,0.5267324171954302,9.744650070089287
2023-12-11 13:29:46.219621,2.9682923128718297,0.8102049385391237,1.5452384055883848,3.34298225380956
2023-12-11 13:29:46.220623,0.3470843179824676,-1.1114458857398946,0.5598803339877549,4.423347733754482
2023-12-11 13:29:46.220623,3.4499154255497744,-0.922475206685959,-0.8150423620627042,4.784026910985323
2023-12-11 13:29:46.220623,3.4553677597492833,0.4277127607437421,-0.7932557188981879,0.8168433728034358
2023-12-11 13:29:46.221615,1.006464209197354,1.0994237626741952,-2.0800428731138667,-1.9555241942182917
2023-12-11 13:29:46.222620,0.7601247735584198,2.4334403514458,-3.269912254886253,-3.630530912199
2023-12-11 13:29:46.559618,0.7776986348782595,2.573417550454714,-2.7543521705465976,-2.5418249122442633
2023-12-11 13:29:46.566623,0.5872610482460608,0.5544418610357963,-2.1787010077168745,-2.5702334068201087
2023-12-11 13:29:46.574617,-1.6701442884074673,-0.49140327683727564,-1.3416154708974148,-3.152866176156725
2023-12-11 13:29:46.592614,-4.417963094163286,0.3896053185517885,-0.7847000319467748,-2.4324392025911314
2023-12-11 13:29:46.620617,-3.592153727322696,1.038506544712721,-1.5495390566576823,-6.966377606593812
2023-12-11 13:29:46.632621,-1.0910945288482885,1.1142695327721324,-2.483606780045822,-8.157740227355088
2023-12-11 13:29:46.640618,1.3943892147813022,1.4778495830127083,-2.599548089945657,-0.17953389170175016
2023-12-11 13:29:46.666620,1.08508781006347,1.9072145968333731,-2.2928400153600217,3.841711959726286
2023-12-11 13:29:46.677614,-1.3834504608277638,2.313842568616018,-2.886335030869682,0.9117766472506948
2023-12-11 13:29:46.707614,-0.41339442756013367,1.7611748715894697,-3.595938482130197,-1.557812238558731
2023-12-11 13:29:46.727614,1.9017072629898901,0.37249943935753727,-3.421202489331078,-0.555122862970274
2023-12-11 13:29:46.776615,1.782886797052361,0.49951616794900305,-3.5555199015981698,2.0381843657343586
2023-12-11 13:29:46.799621,1.3537762476529303,1.2120245813092214,-3.5554742673208137,2.2824204517031563
2023-12-11 13:29:46.803614,2.971667733647156,0.5950375832167337,-3.321688322716323,0.8112068026352011
2023-12-11 13:29:46.810617,4.101571844812801,0.34911957264792715,-3.483142424076513,0.07874455570845999
2023-12-11 13:29:46.821619,3.0115128984227906,0.6794811937328028,-3.6445513317695752,-1.535667263967566
2023-12-11 13:29:46.837614,2.361656246863131,-0.08534506713413166,-3.975293371976127,-1.6248114157312268
2023-12-11 13:29:46.844614,0.7865047455735463,-0.31556917487937386,-3.622917859672088,2.626047214596275
2023-12-11 13:29:46.862615,-1.0255043611725474,0.9186234993149909,-2.944864954721121,2.623578183965095
2023-12-11 13:29:46.876614,-0.21343100689066577,0.9859262103108688,-3.063593689607875,-3.4020675986556883
2023-12-11 13:29:46.889616,0.14117269658431492,0.11538498105895689,-2.830164415658662,-5.047111813354525
2023-12-11 13:29:46.919619,-0.0943607478786905,0.26187952695782246,-2.498702868188577,-3.065115965407413
2023-12-11 13:29:46.935617,-0.08557290551928902,0.4731324825046446,-2.2266491331468714,-2.321982327847767
2023-12-11 13:29:46.959614,-0.5996422848020994,0.498917227271246,-1.2758205179429747,-1.2092219826051487
2023-12-11 13:29:47.019617,-1.3475522007293477,0.7710801765188077,-0.681172151900021,-1.121394119310809
2023-12-11 13:29:47.021615,-2.920657777832564,0.3568575150715074,-0.5350816753323429,-1.9843642265940111
2023-12-11 13:29:47.028615,-2.0428065352735203,-0.2722972379320503,-0.5673881747963231,-1.1886599422735311
2023-12-11 13:29:47.037614,0.11753471509291395,-0.12204551801407003,-0.9085671587896429,-0.16828695121828055
2023-12-11 13:29:47.048620,-0.707994792842817,0.08059019747864123,-0.7246604822039415,-0.17698647951945137
2023-12-11 13:29:47.066617,-0.3942707896057609,-0.005870262872858019,-0.34260234458185607,-0.503391451542742
2023-12-11 13:29:47.079620,0.5734286817711597,0.4631668022942926,-0.23370003301028006,0.2673063487051305
2023-12-11 13:29:47.095614,-2.578209332714445,7.130601292273856,-1.0177700264586107,20.042443163788533
2023-12-11 13:29:47.120617,1.0996972473977322,6.2483566925153875,-2.965622769861361,29.64909714673418
2023-12-11 13:29:47.142614,2.90930290368156,4.03374083515301,-3.6546200666130257,19.430839583339054
2023-12-11 13:29:47.159614,-3.8048879587684095,1.174167681576806,1.9347551819348576,11.932833993506724
2023-12-11 13:29:47.165619,1.564261826432947,-3.3627742560681924,0.7854287152975998,3.0804209394346618
2023-12-11 13:29:47.166619,5.67697406016592,-0.5179037652533688,-2.6675762372643077,-7.867675337305907
2023-12-11 13:29:47.171616,-6.3331058099469715,5.117977262001645,3.424954281891593,1.2528634758473085
2023-12-11 13:29:47.171616,-7.538526067016607,2.162474366331844,5.443422243552368,2.4498663650641035
2023-12-11 13:29:47.172616,0.7489800760899579,-0.8648848817938343,0.5968129190333566,-18.19023123314187
2023-12-11 13:29:47.172616,-2.6630691392133996,2.115882332235297,1.1800172532056177,-17.635314202811088
2023-12-11 13:29:47.172616,-2.8174468885054536,3.3783341844157078,0.8758766774564984,-4.537416947665022
2023-12-11 13:29:47.173615,-4.482887585137977,4.774317408657566,1.7360632666969966,-7.236656484312168
2023-12-11 13:29:47.173615,-14.792734989617058,7.935309133151323,7.004995430691626,-18.445410048249588
2023-12-11 13:29:47.174615,-9.125973393807216,5.9090748921263545,4.086581794689645,-28.858136492481123
2023-12-11 13:29:47.174615,-4.908937194997978,2.9101792620258564,3.0741126804110666,-21.161733747521758
2023-12-11 13:29:47.174615,-21.49626055074448,4.1375309414767765,13.220014682232216,-5.021587530654674
2023-12-11 13:29:47.175615,-27.87357010273511,4.403833766956927,17.081424387427653,-2.389215710827723
2023-12-11 13:29:47.178615,-14.782015004520666,1.6241284020270912,10.387610224991542,-4.279167725526401
2023-12-11 13:29:47.178615,-8.442242492488441,-0.09593617222239403,7.634687928513324,-15.954314561802684
2023-12-11 13:29:47.179620,-16.782141114189255,1.5849916556309656,12.217888254542533,-25.61500027834396
2023-12-11 13:29:47.180655,-17.41047734679139,1.3672966162298998,11.895482878348453,-6.959339839555734
2023-12-11 13:29:47.181617,-6.735265457284774,-0.5278377305777625,5.449235830766335,9.589200696287172
2023-12-11 13:29:47.182617,-4.091402429104136,2.7261541074291933,2.7443715638910193,6.962601119540441
2023-12-11 13:29:47.183618,-3.286985521518166,3.446815101511937,2.6003230638063126,5.079990146398757
2023-12-11 13:29:47.184712,2.750671000423295,-1.8570389375920773,1.7279395873870211,2.9447118970956985
2023-12-11 13:29:47.185618,4.8496594138409925,-1.339236564366086,0.046712614385925826,3.1429633622863644
2023-12-11 13:29:47.186616,3.765512005468621,1.4936552874585505,-0.13996375584645873,3.993258596298436
2023-12-11 13:29:47.186616,1.5851091033851124,-0.8658776772816721,2.91889708705841,1.7540806619189684
2023-12-11 13:29:47.186616,-3.496576674497908,-1.504001065029585,4.8001217222648345,7.06183418920616
2023-12-11 13:29:47.189615,-9.802448667336149,-0.4953338124098491,7.5553739441643595,5.528382076959388
2023-12-11 13:29:47.190614,-10.11286556407364,-0.517060606369127,9.06126831088121,-3.3254455653194137
2023-12-11 13:29:47.190614,-4.229053663748602,0.6515111766328863,4.440259194608777,-2.53706186141386
2023-12-11 13:29:47.193615,-1.8794443065261883,0.4646305048321914,2.4375647951825186,-2.008637863646603
2023-12-11 13:29:47.194615,-4.185257198792622,1.053818879364836,4.1613008124526285,-1.6450653886575601
2023-12-11 13:29:47.194615,-7.619106864619443,2.166856397074733,6.552815772360655,-8.134691442060332
2023-12-11 13:29:47.194615,-10.866607151682171,-0.16148594279494488,10.08187065130209,-19.086780166341303
2023-12-11 13:29:47.195615,-14.837321921925426,0.43444556198669904,10.18971580641248,-7.18805221178683
2023-12-11 13:29:47.196621,-10.220037716458178,2.6428490136839016,6.225792804653321,-0.9772782533332023
2023-12-11 13:29:47.197619,3.9529447412837038,1.2509458646626441,1.6027862933464807,-11.29822654651749
2023-12-11 13:29:47.198620,-2.8743714428067837,-0.0937346262647459,4.553774281564766,-1.6021377028670074
2023-12-11 13:29:47.199617,-19.819662241891006,-1.627403561963349,11.59425985176257,5.843494913630655
2023-12-11 13:29:47.205617,-16.78478858535106,-1.1729384611561267,10.43420467080992,-3.14458065223864
2023-12-11 13:29:47.205617,-10.59525074452628,0.563491211250201,8.382946381950886,-8.670765105359337
2023-12-11 13:29:47.206616,-2.503989191630533,-1.8282684880614959,7.176431382132183,-13.115707292236182
2023-12-11 13:29:47.217619,3.919977221118003,-1.851172531843798,3.8127098143922917,-7.316777335455433
2023-12-11 13:29:47.714615,-1.9487302159898081,0.7523597991462595,5.030438724100352,4.299892050460134
2023-12-11 13:29:47.883887,-0.767343816346663,-1.7316630462159701,5.700106210885439,7.66144540794855
2023-12-11 13:29:47.913854,6.054912868000351,-4.460766120165635,2.3027970400533477,10.81132548955
2023-12-11 13:29:47.935888,18.224391367221457,-4.290404345915592,-2.3336382374325932,6.253144013408898
2023-12-11 13:29:47.956853,25.20369675467878,-5.553089818326918,-1.929761632686896,-0.4673270095876711
2023-12-11 13:29:47.979897,-0.2444957516493143,-5.488087668384861,8.425201234149522,3.202612741451431
2023-12-11 13:29:47.990850,-22.531007935458256,-2.6497191336945036,14.292300153865964,2.8509290604728563
2023-12-11 13:29:48.011852,-18.781253892699,-3.689386529488098,13.787997430751043,2.286896665383443
2023-12-11 13:29:48.055853,-13.049088251537441,-5.185495890181524,14.53751860845906,0.3382895583632913
2023-12-11 13:29:48.059880,-5.283054657812628,-0.9468530908939913,8.763395932541275,-11.653849667670666
2023-12-11 13:29:48.093851,-5.6046375341483605,-0.7602521766138115,6.204309214732439,-10.320276831016294
2023-12-11 13:29:48.098852,-15.371420976526652,-4.947871970894275,12.61267868781499,-2.6053708650956513
2023-12-11 13:29:48.121850,-11.452709383364914,-2.4795691470498316,12.04457761320684,-12.412710283734965
2023-12-11 13:29:48.171853,-11.920248046775557,-0.11300339235365882,11.712155742362599,-20.757908553818453
2023-12-11 13:29:48.175850,-26.083166485662616,-2.495463745317959,18.057716061822394,-19.913396113814105
2023-12-11 13:29:48.184853,-26.743334339161976,-2.058473842524318,17.527494046764488,-18.668810320741965
2023-12-11 13:29:48.201852,-19.783572707437735,-0.8724053777350405,12.912058727549647,-7.608774173515769
2023-12-11 13:29:48.218852,-14.16895922573172,-0.0369030419066284,8.926638091312945,5.282675793911403
2023-12-11 13:29:48.231854,-2.697453617332175,3.203275111085592,3.5477660799316793,0.6170367023570642
2023-12-11 13:29:48.251849,1.5720978876774243,3.448670194619409,2.4809110530795935,-6.5618971990853785
2023-12-11 13:29:48.270850,-2.3457742696691044,1.057463462789651,4.22839739577062,-3.241368380840561
2023-12-11 13:29:48.288850,-6.309119454212582,0.7957491913516208,5.189608475248826,-2.5087239658268663
2023-12-11 13:29:48.298853,-8.49000036167788,-1.602635759370358,5.030522170376738,9.152143247294338
2023-12-11 13:29:48.317851,1.5258021344993173,-5.09331411848342,1.6821468236618202,27.99309541854444
2023-12-11 13:29:48.342851,11.614538242236927,-2.3172810143961837,0.32272992427896924,12.211776966115625
2023-12-11 13:29:48.359851,4.904173356835839,1.8468471126690396,1.151988429780762,-8.589008893913292
2023-12-11 13:29:48.372849,-4.202888072438237,1.0493905968850687,-0.7897476434361589,3.764360567836459
2023-12-11 13:29:48.392849,-2.076779777868821,-0.04714260133583871,-2.9088056881506175,13.06043037082673
2023-12-11 13:29:48.408847,7.730481547929548,0.5526146952447588,-5.145981338656547,12.461393999732088
2023-12-11 13:29:48.439850,13.735950897828287,-0.3024463694573981,-5.149976169289533,13.691275202629622
2023-12-11 13:29:48.455850,6.880121785254542,-2.5062998114095407,0.9700504507220601,5.054078813049299
2023-12-11 13:29:48.482854,-4.251455090176425,-4.523832602463324,6.759239568849528,-1.870622475521196
2023-12-11 13:29:48.535855,-3.0265263432010645,-5.284578269752075,6.489096420375518,2.5644365686392074
2023-12-11 13:29:48.537850,2.6277580880482563,-4.261761504346349,2.466699289397858,10.904136784072483
2023-12-11 13:29:48.540851,-4.42854346075987,-3.1553583855889946,2.3592765457866247,9.457513297388868
2023-12-11 13:29:48.553849,-13.007443779572693,-3.718196614637431,5.545013261108874,0.8326392164755603
2023-12-11 13:29:48.564867,-8.492136499263902,-4.3694602600167975,5.784715355665418,-0.20218872041777916
2023-12-11 13:29:48.583851,5.032055098500018,-4.74418814924558,8.209837013337566,-5.38578154966898
2023-12-11 13:29:48.595917,12.278662148691188,-7.501086403415084,6.529108988174792,6.80765209375212
2023-12-11 13:29:48.660854,7.82064210515266,-8.99090967418127,-2.1973299956305783,35.25987371119216
2023-12-11 13:29:48.666866,7.135134936414075,-6.706607251095937,1.555140169353298,19.40440517432232
2023-12-11 13:29:48.668857,10.219107838367908,-7.10131563742983,8.772317168854006,-2.0624159149246513
2023-12-11 13:29:48.679853,14.544874735910517,-7.496488932510983,3.0008292192458392,9.22811163363405
2023-12-11 13:29:48.693850,21.97827899206888,-3.802344686534565,-1.3642536097717692,7.597164388386413
2023-12-11 13:29:48.757854,21.263701261787755,-3.4233390677453963,0.5709731127496841,4.060235751668313
2023-12-11 13:29:48.759855,20.867589930168762,-5.607528129584852,2.4656106620205396,11.130845077661828
2023-12-11 13:29:48.765855,12.365210466697436,-7.291703098783852,3.6081762620997493,15.43374183391471
2023-12-11 13:29:48.769853,-6.2579897814177725,-9.116756492239864,2.4889673762761455,21.0843691779791
2023-12-11 13:29:48.786852,5.551338245974939,-6.450480548014728,0.16203765697413416,16.008428993269252
2023-12-11 13:29:48.799853,20.00012969907485,-3.8767212387548367,-2.214587257156075,13.5420792799468
2023-12-11 13:29:48.820852,4.022587909878436,-5.391955099769004,-3.095239180287095,21.28166685497186
2023-12-11 13:29:48.830849,0.24827120428296698,-5.058070888406724,1.4483899465731573,10.652564581962439
2023-12-11 13:29:48.867853,9.243213158588013,-4.186313428851411,7.182805558378493,-4.764573146829911
2023-12-11 13:29:48.878906,3.335462671129026,-4.518836021786339,4.313781810330407,2.148319298376356
2023-12-11 13:29:48.900859,-6.501374030967971,-4.863705246623245,-1.110454831768227,13.725305906202674
2023-12-11 13:29:48.909853,-10.54724987177078,-3.75799736065857,1.8190960969340002,4.038948100308742
2023-12-11 13:29:48.975854,-14.484842098251194,-0.4226739062505427,4.290129657953177,-10.733052036124631
2023-12-11 13:29:48.979852,-12.807315487976165,-0.7588949063083691,0.29427415616893554,-1.8335930736989716
2023-12-11 13:29:48.984856,1.010681377794136,-1.842619066802233,-3.777981991847743,10.742874251220112
2023-12-11 13:29:48.990854,5.675719837796187,0.33656109774943443,-6.220804462529239,9.966948831774806
2023-12-11 13:29:49.013854,-0.8227878821011855,-0.6564676351809907,-4.496479051684349,9.435983390312842
2023-12-11 13:29:49.035854,0.2069465215977086,-0.37346086987114374,1.0893751105356277,-1.6433402985932548
2023-12-11 13:29:49.057852,2.016083478480863,1.9381974782221687,3.987080464459054,-14.21371525469117
2023-12-11 13:29:49.076855,7.250396032840674,-2.1198215098772573,3.4399031091591366,-0.3587183449518252
2023-12-11 13:29:49.085854,11.0270570581647,-5.974412755906618,3.2072050762766176,11.881799750743184
2023-12-11 13:29:49.148857,4.3355934620481875,-3.507756126411767,5.610014231419871,-2.0248893375608614
2023-12-11 13:29:49.151859,1.0102556270775715,0.38305313743463265,6.9956508025034765,-16.481341903632583
2023-12-11 13:29:49.154854,-10.21507156602095,-0.6540488645366098,4.370652725756482,-9.093265545015983
2023-12-11 13:29:49.206852,-12.761713843226426,-5.140576146986199,5.227175904603515,2.8747097613050596
2023-12-11 13:29:49.207852,8.177626480562417,-4.532635821516037,10.583728317556313,-5.145926961185361
2023-12-11 13:29:49.217855,-5.49371040082854,-3.921163358373818,11.208851559176557,-10.099850951758063
2023-12-11 13:29:49.230852,-37.37933088066534,-4.49509509121865,9.071080548235647,-9.079902837845077
2023-12-11 13:29:49.244853,-32.4209125781486,1.5301194649762828,7.772511676752578,-23.492346506998985
2023-12-11 13:29:49.263856,-23.34083557753228,2.438108188028962,0.6215224428597705,-12.270359332991166
2023-12-11 13:29:49.275854,-19.987154840533275,-1.8057394676225658,-6.6528071363565795,14.354714109504185
2023-12-11 13:29:49.292854,-11.287053847079012,2.8572632187861116,-2.850375515816807,-3.7257241882612093
2023-12-11 13:29:49.314854,-18.33132037865068,7.823358583902132,0.7294499448000615,-25.36480767163215
2023-12-11 13:29:49.323853,-28.778189570961537,6.458378934881153,-2.8972413879463406,-16.669731285609718
2023-12-11 13:29:49.340852,-30.75176804889341,3.6273876173242514,-1.954664643700942,-11.228451431572527
2023-12-11 13:29:49.362853,-32.15701826264494,-1.3698650260038938,2.1539808393597752,-4.675419160957999
2023-12-11 13:29:49.438852,-17.483161331624302,-6.45654553382305,4.372085609367025,8.793983670163298
2023-12-11 13:29:49.439849,-5.36215870483536,-6.060543676222397,8.217041322100876,2.8922211008824146
2023-12-11 13:29:49.440857,-27.9649225425872,-3.5425409921759186,11.839067912104209,-14.588202622032508
2023-12-11 13:29:49.440857,-38.64853578462742,-6.281659791555813,11.578322627254385,-7.685292669103277
2023-12-11 13:29:49.440857,-18.306902710293315,-7.723196250712462,5.97316588533636,9.114752282688771
2023-12-11 13:29:49.441855,-27.494515734731046,-4.954616848234185,5.704232854862597,-0.05821894983654507
2023-12-11 13:29:49.441855,-38.4700904626379,-9.475135611425129,13.796588819377135,-2.1346461399257217
2023-12-11 13:29:49.441855,-3.3559024159562116,-10.76429893328996,9.048495825245848,15.896569339687037
2023-12-11 13:29:49.442854,23.375059215875247,2.1729455211575552,-7.059571773007545,9.996332480765249
2023-12-11 13:29:49.443854,15.83254660419997,10.7936839700947,-12.012385436498668,-8.009791017851851
2023-12-11 13:29:49.446859,4.996913708459552,5.731860729906871,-4.134363413541209,-8.248062075335934
2023-12-11 13:29:49.447852,1.735354317025853,1.0772333607104487,0.9428531964805519,-3.7406091326992676
2023-12-11 13:29:49.447852,5.365084802568149,6.710484800800725,-4.813465506312043,-9.9218961110011
