Timestamp,TP9,AF7,AF8,TP10
2023-12-06 15:44:58.513485,-0.7049839440186035,0.16880177900009732,-0.08070116038588852,-0.34404797400636317
2023-12-06 15:44:58.513485,-4.843314689189808,0.22966688573304064,0.0034987618554927625,-1.4239398680661857
2023-12-06 15:44:58.513485,-5.653628334578316,0.7340368942007087,0.8558596796405319,-1.573664026495009
2023-12-06 15:44:58.514485,-1.7966863866031113,0.9354577887401738,1.2061576311205682,0.04306528723251067
2023-12-06 15:44:58.514485,2.0134607750344635,0.7282715506016838,1.3937859201326632,0.31486627386277394
2023-12-06 15:44:58.515486,0.29822540507580286,0.9113437175533556,1.064278074215617,-0.9054870826812791
2023-12-06 15:44:58.516487,-4.243791832627787,0.5186705716016436,0.28247664692780133,-2.0450335845525642
2023-12-06 15:44:58.517487,-5.57483030792933,-0.03185373516842929,0.4489428929252875,-2.067522831270997
2023-12-06 15:44:58.517487,-2.7290680945189685,0.5494464763124842,0.46133558726694435,-0.586917212470931
2023-12-06 15:44:58.518496,0.9283840193677952,0.8324400994774993,0.26547880112331684,-0.7357905917892414
2023-12-06 15:44:58.519488,0.45332578331531787,0.9808064246325995,0.34198453917903554,-1.6468142465533502
2023-12-06 15:44:58.519488,-4.863773598793981,1.0058380553894017,-0.5965818825196733,-1.6927262805257957
2023-12-06 15:44:58.520488,-8.108873023141706,0.12141661971625212,-0.7901194683580515,-1.844275500901211
2023-12-06 15:44:58.520488,-4.527031808344898,0.447070869279407,0.6486761662764958,-0.5459148461512172
2023-12-06 15:44:58.521487,1.3525576642586776,1.1912063576824092,1.1364088349119617,0.4144832052026034
2023-12-06 15:44:58.522488,1.927119029901576,0.9042884645458232,1.0426105295400578,-0.10181253610840635
2023-12-06 15:44:58.522488,-3.7892476787407063,1.2166196312000166,1.1897931850651586,-0.9431967745173326
2023-12-06 15:44:58.527932,-7.756821352901206,1.4165057862076558,0.9465668761022151,-2.0574133259571323
2023-12-06 15:44:58.527932,-3.677155100419977,1.2085352109921292,1.9644384550612364,-0.4521533437190627
2023-12-06 15:44:58.527932,3.281959209725069,0.9185461436079008,3.2528005739031993,1.5245941420669669
2023-12-06 15:44:58.528997,3.6499245161463065,0.11056291367077264,2.321845319084598,0.4808512709669961
2023-12-06 15:44:58.530023,-3.448125776310543,0.5163534851689904,2.07971024030863,-0.8204723158146702
2023-12-06 15:44:58.531031,-8.789841277437992,1.5741850050751696,2.1082937990159087,-1.2881381918391943
2023-12-06 15:44:58.532176,-4.148453411655773,2.013262770309457,-0.6498689667695515,0.08874803729487521
2023-12-06 15:44:58.535310,5.0848676018051515,2.891449931179161,-1.381118061039968,1.1705027016447485
2023-12-06 15:44:58.535310,5.376238352224902,2.726181280310054,0.5736894740072441,0.07180217058263832
2023-12-06 15:44:58.536313,-3.310449636089955,1.3630881196179199,0.5306413036872222,-0.8131750913037487
2023-12-06 15:44:58.537545,-8.793622215364843,1.575113583144059,1.586774673524675,-1.906853966808333
2023-12-06 15:44:58.538658,-6.023115108292413,2.592708471788048,4.45730677794977,-1.450006709879976
2023-12-06 15:44:58.539715,2.1638906417568213,2.3631715608307235,4.76433949837189,-0.276838066866486
2023-12-06 15:44:58.541002,6.78194655514851,1.09284460000381,3.4946342792002674,-0.11948172679739516
2023-12-06 15:44:58.541002,-1.021742016890656,0.46818902162682824,2.2382483787081866,0.121564349222443
2023-12-06 15:44:58.542041,-11.690999023831857,1.7823598578215776,0.2485568561899213,-3.1201058025435144
2023-12-06 15:44:58.543274,-8.83751419647952,1.6999428625795405,-1.2368204979732684,-3.9303482562730667
2023-12-06 15:44:58.544554,4.494951254849824,-1.0543253481907873,-0.9418093644382666,0.3178952420305898
2023-12-06 15:44:58.545563,11.3968183924369,-0.5162835136559499,-0.7981046926317981,0.6667179538032043
2023-12-06 15:44:58.559458,4.195992563248564,1.8532680833746518,-0.9446308722616791,-0.8453221013794697
2023-12-06 15:44:58.559458,-7.839087226685093,-0.09502814071508632,1.1446735386354792,-2.775403827903496
2023-12-06 15:44:58.560910,-10.599046333698041,-1.3347199472037266,2.976390805169561,-2.9004516389121524
2023-12-06 15:44:58.562153,-0.3106279828235117,1.2789705711718304,2.266791767763628,0.7947144394822919
2023-12-06 15:44:58.563462,8.499165202817169,2.065423736762373,2.1877809316917505,0.5631411620954895
2023-12-06 15:44:58.564476,0.21138248963364534,1.0307746183942244,3.1068586517190995,-1.0925229411222275
2023-12-06 15:44:58.565816,-15.34652362736699,1.1795792377430607,1.3497822438040175,-1.6602454724324378
2023-12-06 15:44:58.569968,-17.62801032411108,1.0044741780435278,-2.3254129008441953,-1.31812332576571
2023-12-06 15:44:58.570968,-2.9728851055650276,-0.014454114207075115,-1.4844733536123618,1.8230971208410152
2023-12-06 15:44:58.570968,12.122699663248294,1.23689364873166,3.2214230094992,2.376906273826947
2023-12-06 15:44:58.572009,7.180993900463731,3.5851450678041665,4.359271628152953,1.3223124738344825
2023-12-06 15:44:58.574071,-11.46670836670127,1.5225996048090251,2.5021752230959193,-2.6569065400145226
2023-12-06 15:44:58.716867,-17.03090988156962,-0.8547781162529305,1.6553582025736227,-6.317775871355651
2023-12-06 15:44:58.716867,-1.6798371218041463,0.9273111653691949,1.7384321006515828,-0.8216305409469188
2023-12-06 15:44:58.717859,15.299811448633335,1.2206732506434723,3.032806990230362,3.3391518176377244
2023-12-06 15:44:58.718859,10.980085855731868,1.3735154631231274,5.174442712286952,2.3413384602529095
2023-12-06 15:44:58.720860,-9.5098729770083,3.003044904978777,4.189056508105765,-1.084926295091035
2023-12-06 15:44:58.721859,-18.82077774300561,1.60997070280291,-0.625200629595004,-3.173082487350324
2023-12-06 15:44:58.721859,-6.682565288015519,1.6711643254014703,-2.019340763826982,2.4008023542382704
2023-12-06 15:44:58.722860,11.289648762364024,3.1352484207482036,0.8970253544782867,3.0685475443327395
2023-12-06 15:44:58.723859,11.685610045635912,-0.2144084595650833,1.1511971227791529,-0.3263956097737705
2023-12-06 15:44:58.724862,-8.06863723872097,-3.2349618234726716,-0.24528752558293154,-3.88446689587967
2023-12-06 15:44:58.726145,-22.6120549910353,-2.4389378687985204,-0.9122719899923456,-10.65913512743955
2023-12-06 15:44:58.727330,-11.31131511717676,-2.1212809308182754,-2.001593394592442,-5.813235434496671
2023-12-06 15:44:58.730378,15.6218598881633,-1.8494576737841275,-2.6250018539999522,1.1830332305897489
2023-12-06 15:44:58.731383,22.234409488394885,0.6538977261406623,-1.431705553075772,0.23566300450926517
2023-12-06 15:44:58.731383,-2.6832305118192363,1.3634525402085829,3.3017734730251513,-1.5420841971511248
2023-12-06 15:44:58.733393,-22.988016657717186,-2.1083750581957177,3.763139044141153,-6.087107395900835
2023-12-06 15:44:58.734397,-11.94451985374668,-2.9366289298776023,-3.580285224661884,-0.7625391223428141
2023-12-06 15:44:58.736407,14.591040677726705,-0.3737626113646486,-3.8472356595054698,8.318977475321642
2023-12-06 15:44:58.736407,19.5375945893017,-0.07936089215165139,-1.0408961229533962,6.001702877792237
2023-12-06 15:44:58.738430,-5.481284246841095,1.106778759396792,-3.9301598829524513,-1.0998212288065645
2023-12-06 15:44:58.739434,-25.112947451965262,1.984354033747022,0.03474855628515142,-7.918485911087438
2023-12-06 15:44:58.745104,-14.771754875703047,-1.218564764857617,4.776008840152461,0.34653392278635164
2023-12-06 15:44:58.745104,16.336844962158864,-1.492740379184813,2.2989922881277844,11.544160592865156
2023-12-06 15:44:58.745104,31.760045982340696,0.2874932692191653,-0.19753610497648394,6.1617059938796945
2023-12-06 15:44:58.746608,6.1571415412847745,0.223309786491187,-4.56864023419457,0.6403541145731273
2023-12-06 15:44:58.747614,-26.90344885033919,1.7331532545470727,-2.700576952155479,-2.361094848864972
2023-12-06 15:44:58.749887,-27.834309669401808,-0.48085569430194747,4.84584501847661,1.3226411154933555
2023-12-06 15:44:58.750896,0.8891329408540907,-4.766042322595778,2.8055183411728826,10.070095741851071
2023-12-06 15:44:58.752323,21.496975778088434,-4.832884680953754,0.06747169629883534,9.85312400693519
2023-12-06 15:44:58.753355,-0.3644843215870476,-11.080139075958453,1.9239304319070447,5.472162158973853
2023-12-06 15:44:58.754362,-32.78150126683509,-16.60375313517851,2.1431419183769025,-7.537426503681456
2023-12-06 15:44:58.756450,-29.657266324983205,-8.121168473819367,3.783034073721462,-11.864938514878068
2023-12-06 15:44:58.758509,2.742628068333938,-2.9800497300293585,4.522685940824204,3.479222488626386
2023-12-06 15:44:58.759527,26.98755354299437,-3.994422232991921,0.7925239852876426,6.9745081469370165
2023-12-06 15:44:58.760535,9.97136643911254,1.4075967801980989,-3.5632817121164013,-0.11687760349350135
2023-12-06 15:44:58.761541,-23.06709620148943,3.768749942364769,-3.383711306862137,-7.416856105629354
2023-12-06 15:44:58.766065,-23.379679285721494,-0.024208144981270406,-3.901915259656495,-9.055310432212558
2023-12-06 15:44:58.767221,7.945570342459941,-1.5618508892693175,-9.1268678242118,1.6678873977330735
2023-12-06 15:44:58.768226,33.68815581884836,-0.46792937839006604,-7.725478249771638,4.953221118911894
2023-12-06 15:44:58.769231,17.674189447961588,-1.9967269856361574,-2.780318042104206,-0.05149042097150174
2023-12-06 15:44:58.771319,-20.13022434576742,-6.84832020167892,-2.3165591275491977,-7.742061708000009
2023-12-06 15:44:58.771319,-26.559350521142772,-4.218337561314568,-1.376764891459369,-9.567083180420147
2023-12-06 15:44:58.773727,6.838539637423883,3.390052484585046,-2.347349200933615,4.949467887436922
2023-12-06 15:44:58.774738,43.78756491074048,3.0919176069789622,-3.319502980820121,12.660364752218065
2023-12-06 15:44:58.775747,36.97704337879692,-1.4069862406017541,-2.3227401645568397,11.575282434162244
2023-12-06 15:44:58.776755,-4.873686143614525,-0.6412768772100481,-4.291983368494912,5.412138850016017
2023-12-06 15:44:58.778771,-25.760462122059657,6.9520789911970855,-6.444349656654009,-3.12103605848069
2023-12-06 15:44:58.782719,-3.7842521031432557,8.512783285769403,-7.6396430807012985,7.450082911627302
2023-12-06 15:44:58.822259,39.63022518629613,3.1486458689977668,-2.006869142609003,15.518028078126402
2023-12-06 15:44:58.822259,44.630443989452424,6.226045316514491,8.367507289280748,10.771060127641535
2023-12-06 15:44:58.824280,-7.34508148572895,6.549422725414415,6.0986360577223016,6.38828152560949
2023-12-06 15:44:58.824280,-38.65727070172778,-0.3401678818781783,-0.42274715629224424,0.27974288333118036
2023-12-06 15:44:58.827325,-3.856785113666254,0.8344628998365585,-0.5790259598073809,8.026176242454184
2023-12-06 15:44:58.827325,44.66944899372002,3.7648885232355758,-0.8798353690362282,16.58955483819967
2023-12-06 15:44:58.829517,43.8540799497605,3.4135535997364257,3.893236342810727,10.433381399148715
2023-12-06 15:44:58.831540,2.416711857972477,-0.9906674040822917,6.144521450321543,3.2582625680217983
2023-12-06 15:44:58.831540,-24.838905314041348,-7.990360962863018,-0.9974539130190313,-3.3269831099976312
2023-12-06 15:44:58.832569,-7.800108095933895,-2.472017966209165,-1.5178936685903914,0.5078615519284964
2023-12-06 15:44:58.834721,35.5742841913577,3.2632464710456093,-1.4534258710348356,7.150777124072374
2023-12-06 15:44:58.835729,41.52698672428336,-5.441335738039741,-6.501806172882031,3.5233647779401043
2023-12-06 15:44:58.846899,-7.825483112309912,-6.079945377108423,-1.3121673502711924,-5.07927442032273
2023-12-06 15:44:58.846899,-43.83388691461444,2.0161998040022047,5.677354544113136,-16.468732408674608
2023-12-06 15:44:58.848133,-23.289622233658456,0.004658882696951874,1.4485246860857752,-12.531437949155391
2023-12-06 15:44:58.850233,26.337272800951915,-0.36932814713492895,-4.380252744444811,0.8354484464997689
2023-12-06 15:44:58.852257,41.75890261724659,4.340537105455172,-3.298689126713114,6.006889080736477
2023-12-06 15:44:58.854462,4.458659784648279,-0.7700242217668058,1.1640982253106944,2.417276176223361
2023-12-06 15:44:58.855469,-29.525676477824888,-6.571942291221404,0.987262582904422,-7.296324605740564
2023-12-06 15:44:58.857492,-21.929417653841497,-5.2076106199226535,-2.4185092966903463,4.864359366046817
2023-12-06 15:44:58.858506,20.177302742053175,-3.5412056523488875,-1.3051739857612519,20.952853778492916
2023-12-06 15:44:58.860500,47.33363648109678,-0.7273511598529389,0.0512827949288585,12.999591625674636
2023-12-06 15:44:58.862500,13.139840735871582,-0.41492679100438795,-5.941335289505779,3.4843559802006054
2023-12-06 15:44:58.862500,-35.252849472452624,-1.0119867091294594,-6.89467110613601,-11.973321481526963
2023-12-06 15:44:58.963082,-29.604041017881556,1.6297232430585524,5.6839620544146605,-11.260282518213236
2023-12-06 15:44:58.968077,23.06576078316611,-2.5313531340239783,6.369582287556786,14.061119189510439
2023-12-06 15:44:58.968077,57.575081517922825,-5.199214238259197,-7.979863935706234,17.769084539794836
2023-12-06 15:44:58.969085,29.576618027527076,3.2739152059051757,-4.583503145406769,10.805275447877808
2023-12-06 15:44:58.971086,-18.519871776901304,8.991235606131276,10.256606592695443,0.6467547561484306
2023-12-06 15:44:58.973077,-21.12915834616391,8.628015462777192,13.485847267836313,-6.255823209852224
2023-12-06 15:44:58.974079,25.32691826930199,3.3456660249025783,10.341872971058745,13.887198903390832
2023-12-06 15:44:58.976089,56.182380969672685,-5.171279957424485,5.548255843640134,21.048546839806495
2023-12-06 15:44:58.978212,23.738718305055173,-6.5156964257371675,3.5252467890875274,3.196890468635524
2023-12-06 15:44:58.978212,-33.55463865933998,-2.8706517236124944,4.976421059799996,-8.179856447952334
2023-12-06 15:44:58.980630,-43.18037474422259,-0.17914475403450272,2.8468129425745308,-2.12261870570318
2023-12-06 15:44:58.982684,-0.041907054539485,4.275801092399597,2.1522424777999163,10.254254575981774
2023-12-06 15:44:58.983694,44.03117331171799,2.1834821259831916,2.2264728130905,8.32179542791541
2023-12-06 15:44:58.986720,25.804081598005954,-6.095231330709229,-3.1475053391393306,-1.4554269173889731
2023-12-06 15:44:58.989752,-30.085045706789398,-7.813780988373926,-6.290800133703357,-11.669537732859549
2023-12-06 15:44:58.989752,-49.75660438402593,-6.634034490113242,-8.303984867648047,-13.50074061685753
2023-12-06 15:44:58.992085,-13.39117216093007,-8.418365945237271,-10.412927961985293,-0.9925877252966719
2023-12-06 15:44:58.994091,41.86854306366081,-5.242639225559336,-1.8271860638924091,4.478141073010843
2023-12-06 15:44:58.996110,48.522079245475325,-1.3371059907727276,7.738937249970246,12.988701611465448
2023-12-06 15:44:58.996110,-5.542360664694825,-1.2751376761806628,6.08174135483033,7.063062377394891
2023-12-06 15:44:58.998138,-42.523803049946295,3.5397260497419882,-0.15299426522692977,-21.222016631819468
2023-12-06 15:44:59.001215,-7.614423134650943,2.351634948201694,-9.28229854123023,-13.049966220668109
2023-12-06 15:44:59.001215,51.81397008664745,-8.543676338603733,-9.910548752829454,8.721413244159638
2023-12-06 15:44:59.003223,55.96056820504707,-7.233753878565178,1.0881710314616593,8.621738263933365
2023-12-06 15:44:59.009402,8.363873786716272,2.879960235278492,-2.299432255263992,1.4619176050671205
2023-12-06 15:44:59.009402,-24.546908632592135,4.1551009676151995,-11.006974998051657,-10.479712355156087
2023-12-06 15:44:59.010408,-3.3988981876862914,0.48350917281295824,-3.980556823086454,0.42091248239092843
2023-12-06 15:44:59.016678,45.78307620019966,0.07077815447140746,3.6174553366645945,19.03468517758434
2023-12-06 15:44:59.016678,49.818708117166096,1.0104957185795123,9.224198321987462,15.699543064533982
2023-12-06 15:44:59.017684,-0.5596696541769732,-0.20985912360790562,9.280679093016778,11.891655634958793
2023-12-06 15:44:59.020704,-38.32755317662577,0.035121149213264105,-1.484638642632709,7.942983845283569
2023-12-06 15:44:59.021797,-27.481265279053904,2.0795819384623817,0.2953290583735791,4.5008543295600445
2023-12-06 15:44:59.022807,17.120781612500092,-1.0264723058272103,6.906893074716387,4.471937526004822
2023-12-06 15:44:59.025829,35.61038491075274,-6.832169539676491,1.0880377768621052,6.440564589761705
2023-12-06 15:44:59.026936,-4.027077758716588,-3.730135355180025,-1.3074810913977366,2.9049322808483233
2023-12-06 15:44:59.029966,-44.53473695602903,5.741908183343958,-7.911021225413558,-18.913559230411884
2023-12-06 15:44:59.041535,-35.52505246862276,2.8292906468119514,-19.51749849535016,-18.526905429702904
2023-12-06 15:44:59.041535,17.571494001555436,-5.788833773854618,-13.428225156989273,3.0486886707762153
2023-12-06 15:44:59.043541,51.637253747960884,1.4800141392249009,-3.1383712823551675,2.6968331681979265
2023-12-06 15:44:59.044547,12.192126654287453,6.745644139497698,0.07929518117775186,-3.4334514967820717
2023-12-06 15:44:59.048073,-37.79011227281892,-3.0406111160939884,2.978550314967488,-7.384087602794571
2023-12-06 15:44:59.050096,-26.791756383302488,-6.598697513701658,0.8593435120444513,-1.7347701678140925
2023-12-06 15:44:59.052113,22.342091292396386,-3.545412163377011,-2.107897197746625,12.996290451013037
2023-12-06 15:44:59.052113,47.53299518131534,-1.0446955053143274,-6.528290365221909,7.776703936238975
2023-12-06 15:44:59.054461,15.200144775726459,3.453196303735451,-12.755571680150119,-4.086730531981482
2023-12-06 15:44:59.056710,-30.67053973091068,4.658201004079526,-10.984300502431726,-9.192086783661667
2023-12-06 15:44:59.058741,-30.681793688249094,6.439598229403937,-5.499685077934696,-5.327304923984519
2023-12-06 15:44:59.060756,18.193976249350225,6.169426803931732,1.5313587420188894,6.9971424310144865
2023-12-06 15:44:59.173789,57.435869695619004,0.44864389034629487,-2.8442971118640994,9.962203098275184
2023-12-06 15:44:59.174924,25.060426412701123,4.990435002265352,-20.74276808411938,4.302647830991944
2023-12-06 15:44:59.177034,-32.523924579374615,8.238830995866449,-16.198054846263933,-9.952562315269978
2023-12-06 15:44:59.178040,-35.93471692407653,-2.9591132455791542,0.7199451351099666,-12.399049686289196
2023-12-06 15:44:59.180061,7.659235885085182,-5.018966332590842,3.1682326014783686,8.325145276340963
2023-12-06 15:44:59.185508,44.07840525951554,1.5595340575397652,6.536682571089425,16.545803173960465
2023-12-06 15:44:59.186518,25.476686097087516,0.2013271178993096,6.951382686930336,8.776445273575435
2023-12-06 15:44:59.186518,-28.241786714750898,0.029332250213578864,3.2890216378229096,-7.189629492158058
2023-12-06 15:44:59.188532,-47.464063566954216,-0.19079934795254241,6.794149291565487,-13.12556275177551
2023-12-06 15:44:59.192900,-11.509789108422005,-5.6670736133994595,5.70128687152535,3.378698252988307
2023-12-06 15:44:59.195008,31.624794677487586,-3.3685947525640807,2.660612564296622,3.6088765591710406
2023-12-06 15:44:59.196019,22.957045153351824,1.363443668697937,0.7589442745919857,-6.1343208563984994
2023-12-06 15:44:59.201184,-22.97580738982817,-1.3520205192534216,-5.082567769056646,-10.678677017181881
2023-12-06 15:44:59.202190,-44.49402572850436,-1.0689440226499627,-3.9218785723827234,-16.605540641241223
2023-12-06 15:44:59.202190,-18.285593544538234,-0.8947619548645542,0.166656789467131,-5.270124171672683
2023-12-06 15:44:59.204204,28.469323584727675,-6.260421202177081,2.4652803156775565,4.373486546652259
2023-12-06 15:44:59.208676,35.750280184789,-6.34025376434149,8.049946734073087,2.6584861273176683
2023-12-06 15:44:59.210939,-5.80864203605558,-1.0407764206240968,6.590311432258577,-0.3456595248209653
2023-12-06 15:44:59.212951,-35.83768654626591,1.5255952598849947,2.6241300758493638,-10.63950587747456
2023-12-06 15:44:59.212951,-19.63428507703134,-1.0974209487752364,6.350199818457704,-3.835633637863826
2023-12-06 15:44:59.214963,22.868886880627162,-1.534112570363934,7.242940984628775,14.613250463521016
2023-12-06 15:44:59.218027,33.35351193625887,5.534471670512033,4.259706923042095,15.47878966518869
2023-12-06 15:44:59.220051,-7.919746286943514,7.553837371185078,-0.24095340258124223,1.396471460633368
2023-12-06 15:44:59.222063,-37.35357176555584,2.814743597060522,-6.835713145785196,-12.781338862763418
2023-12-06 15:44:59.227298,-18.45517312320831,0.6040137050507199,-3.293975760028891,-7.6675276229910025
2023-12-06 15:44:59.227298,15.934180782659439,-0.8552162504251817,6.809319242421672,-0.399311803133556
2023-12-06 15:44:59.229316,23.53343392048515,1.4157176961467268,6.443759603192598,-5.049623479198845
2023-12-06 15:44:59.232349,-5.014335706945008,4.63260706033832,1.6735773859132375,-5.595924115718409
2023-12-06 15:44:59.234357,-32.538639414847665,1.5818792390046867,2.014654134331818,-7.662716352825207
2023-12-06 15:44:59.236502,-24.795581159582337,-0.3988043942328778,0.38091120406648504,-6.706255607589601
2023-12-06 15:44:59.238586,8.193849471799954,-2.151957774058698,-2.1508245279680342,-1.8654930652403066
2023-12-06 15:44:59.244644,23.28688340717383,-6.160609511955732,2.6736698269554378,-0.35906695208671136
2023-12-06 15:44:59.244644,-4.411975801502733,-3.628234962095806,6.772866525558926,3.5627021630299294
2023-12-06 15:44:59.245649,-37.81767917855299,2.5498219892123686,2.645047985636604,-2.1178274942042417
2023-12-06 15:44:59.248163,-33.47955003186825,2.7922382426923233,-0.2547597339238058,-7.3847785506147865
2023-12-06 15:44:59.250168,1.0048160126706216,-2.03235812791491,2.9804986124230255,0.10948571446435582
2023-12-06 15:44:59.252342,22.935010197654123,-2.363796055023783,5.900068533897022,4.1979692497678744
2023-12-06 15:44:59.255464,3.666016250818065,2.6962196116539685,3.463121652297971,1.9203159085638604
2023-12-06 15:44:59.258496,-26.09612556783681,2.9246367836897407,-1.387035007673502,-7.585774455357086
2023-12-06 15:44:59.259505,-22.668770660853557,0.12377457118992886,-2.0240176250384434,-9.521538182601045
2023-12-06 15:44:59.261521,5.229819588107691,-1.5724281542301857,-0.5626707975714706,2.0031236567712116
2023-12-06 15:44:59.263546,21.847131386034164,-1.4190353822311172,-0.8586587160828966,3.445370854359573
2023-12-06 15:44:59.266574,9.799100237706742,4.359859800896538,0.5129670769027979,-0.5103600098206361
2023-12-06 15:44:59.266574,-15.368211383100299,3.679987013675631,3.077597179279428,-1.968255528849985
2023-12-06 15:44:59.268606,-23.11506922596073,-3.654371669477579,2.9257380727924702,-3.525374088551961
2023-12-06 15:44:59.272607,-3.7138646526202006,-1.4451721552552534,0.32370092487078916,-2.8557631636999834
2023-12-06 15:44:59.272607,17.09366553544559,0.4797191800807228,-1.9040491007721714,-2.786319937587646
2023-12-06 15:44:59.274610,9.753332951273055,-0.7385335237005896,-2.150532052898716,-1.6122812506096111
2023-12-06 15:44:59.280653,-15.629271602735104,4.063789127666351,-1.9020066786705319,-6.2982311611156065
2023-12-06 15:44:59.281664,-25.116071361889475,3.7796512715351827,-0.5859628909663633,-12.01484999963749
2023-12-06 15:44:59.282694,-6.90238542213859,-1.1224837322119572,0.7083502003650601,-7.306318657368154
2023-12-06 15:44:59.286831,14.358621137093198,-1.8131009268890195,-2.705730965714616,-4.055749246559706
2023-12-06 15:44:59.287838,10.142390821665701,-0.7743820731450846,-5.143876080375753,-2.9824504147543123
2023-12-06 15:44:59.290852,-9.727260468485245,1.2231387893289571,-2.065883458147527,-4.674790206603474
2023-12-06 15:44:59.292859,-17.995630434614057,0.32929001174666817,-1.1783780092143585,-7.357680974354656
2023-12-06 15:44:59.294876,-6.521608331205064,-1.9263557432331937,-2.908197842186667,-0.8725283906438146
2023-12-06 15:44:59.297885,11.18224470438912,-0.6740435110939722,-2.241336050701691,0.46371823348311075
2023-12-06 15:44:59.302907,11.302660893526426,-0.6665384973423495,0.7830865868552355,-2.985948238089266
2023-12-06 15:44:59.303924,-6.27006210528814,-1.513344080986659,2.52468978890604,-2.5972082111188697
2023-12-06 15:44:59.303924,-16.986354297703834,-1.446878588008323,-0.8370080399050039,-5.012732832979073
2023-12-06 15:44:59.380669,-8.78717184884417,-1.4669038044060458,-2.9432870762529686,-2.3055497254664696
2023-12-06 15:44:59.381676,7.679836393772158,0.3985770968485203,-1.1939060238840236,2.145899141933963
2023-12-06 15:44:59.384683,10.54818384651537,0.7676669323472555,-2.0028077696787325,-0.8017234670203496
2023-12-06 15:44:59.388670,-3.967958887634739,-1.2997291953223078,-1.2494167625215797,-4.477162158839131
2023-12-06 15:44:59.389675,-14.537427535887753,-1.124980158766774,1.0842092683053708,-5.815137570552189
2023-12-06 15:44:59.393680,-7.986923436838923,0.007779944394939978,-0.237163374622317,-1.952254555510518
2023-12-06 15:44:59.393680,6.662407169986597,0.059669661192699536,-0.23940975648228174,2.4414646105511895
2023-12-06 15:44:59.395681,9.770703320998265,0.47076604894453056,-0.044729787796677196,0.8100455600652893
2023-12-06 15:44:59.399677,-3.18101215890264,0.8647148064049525,-1.3090205064268994,-2.998184466430288
2023-12-06 15:44:59.401676,-13.560096471320412,0.6280267935727534,0.42241956563057215,-4.974616967088457
2023-12-06 15:44:59.403674,-8.905990894196725,1.3759844145644329,1.0959753826324483,-1.4695362653379713
2023-12-06 15:44:59.404674,3.6350830596268127,2.4717083097895887,-0.273903333742444,1.495247116616491
2023-12-06 15:44:59.411681,8.661124040462944,1.1257861902295565,0.050690756179805556,-0.4044632672247462
2023-12-06 15:44:59.411681,0.572511655803036,-0.8568147681365659,0.5012824021891563,-1.6784893514829633
2023-12-06 15:44:59.412679,-8.755468239724278,-1.057310169388641,0.8839546263285604,-3.346723114342239
2023-12-06 15:44:59.416708,-8.17016973870314,-1.303841165671554,0.3349885456154838,-2.7713226313103436
2023-12-06 15:44:59.419811,1.0579337415436925,-1.0748952387642983,-0.8682970600152664,0.48720073206781495
2023-12-06 15:44:59.421831,7.449878415992617,0.10168728671455556,0.26212820669480874,1.197156304928555
2023-12-06 15:44:59.424966,1.6445530665267634,-0.22547398577227806,1.6566094392184756,0.5362344272168421
2023-12-06 15:44:59.425975,-7.7736033666344975,-0.37777906602156786,1.9919644093318107,-2.3034758888592086
2023-12-06 15:44:59.427992,-7.86434662735823,0.5779785893957492,1.7489354931392949,-2.9230415839725983
2023-12-06 15:44:59.431033,0.605310040674752,0.2633802788944396,0.49982605894638554,1.2876478861244451
2023-12-06 15:44:59.433085,7.229211780877208,-0.3941111557877788,-0.11851694993441461,2.413730898059514
2023-12-06 15:44:59.438138,3.34718250201404,-0.4957335008312705,-0.7609387318948294,0.7445156079983842
2023-12-06 15:44:59.444187,-5.688997057656334,-0.3896340725314698,-1.1274754645258025,-0.8411439740089712
2023-12-06 15:44:59.444187,-6.900624268378009,-0.38377588705891824,0.49944178262518724,-1.0755053667644139
2023-12-06 15:44:59.445203,1.3942402797619353,-0.7036981355098477,1.033288548486131,0.9527116883710588
2023-12-06 15:44:59.449738,8.291853962200944,0.1548446080788717,-0.014082875216127512,1.4408132097576503
2023-12-06 15:44:59.452747,33.45677517225907,5.998690409684904,-1.3628762663452425,3.6536186635516734
2023-12-06 15:44:59.454910,-28.602167973783864,3.3266048842961204,2.397045032967889,-9.78456077121131
2023-12-06 15:44:59.457937,-51.21726206239974,4.298956647654749,9.528428927406003,-14.09823075854914
2023-12-06 15:44:59.458941,-15.24641107142966,3.5614235011160553,13.509667445103025,-1.9195886982432808
2023-12-06 15:44:59.462215,39.31100514679039,2.8224019074909257,10.284920959047804,4.538739560690092
2023-12-06 15:44:59.464493,43.926616204267965,5.2984193654755,-0.5753024159020659,10.246355978978553
2023-12-06 15:44:59.466508,-14.072296643866094,1.2510919382808505,-10.187726827371026,-0.4082416169085923
2023-12-06 15:44:59.468707,-50.4926510605122,-0.9721623039754788,-4.671779810418269,-20.658759112104338
2023-12-06 15:44:59.473868,-9.140975363157867,0.6597020925324516,-0.9078217554249959,-0.981683509733884
2023-12-06 15:44:59.474873,50.085660235552524,2.9899452739792225,0.5817258885190215,21.645150787729133
2023-12-06 15:44:59.475884,39.36022055042676,6.086474505957512,14.21121022413826,12.210306760026223
2023-12-06 15:44:59.478899,-24.28883445685003,1.4427873403315732,17.280913008706605,-4.443558155511404
2023-12-06 15:44:59.482927,-52.768727648630275,-2.5751000768489476,7.288663621493349,-11.244679901827391
2023-12-06 15:44:59.483943,-15.285994504899804,-2.4775346166426266,4.560557277662195,2.052969496998475
2023-12-06 15:44:59.486968,43.320156064286,-4.591148324390258,6.886689630537244,13.269440103888769
2023-12-06 15:44:59.489985,55.691983257196604,-0.2810975646212513,4.510164372895389,9.790711535062892
2023-12-06 15:44:59.492233,6.812457180795817,3.7751727442755554,-4.891764287551548,2.657457591173777
2023-12-06 15:44:59.494244,-39.43013622505412,-0.3920931208645252,-12.670365623599594,-6.7638920335866795
2023-12-06 15:44:59.496258,-21.62234649871198,-0.8482500124444369,-15.480095915663345,-4.039153951230689
2023-12-06 15:44:59.499277,34.395293117460625,1.8896712950285732,-9.45623129121038,4.331379778018761
2023-12-06 15:44:59.507467,44.3526016126143,0.5415390638040616,6.218379178466368,4.480177720794278
2023-12-06 15:44:59.513513,-4.7807202578696675,-0.6691544764587052,9.556254372075104,-2.521247928699951
2023-12-06 15:44:59.513513,-44.26374613977308,3.078816840494308,1.1729723255894982,-11.379870218476412
2023-12-06 15:44:59.515571,-27.50554592686867,6.173034248357793,-1.2731420982950394,-1.1520899453255709
2023-12-06 15:44:59.519708,28.555071922636472,1.2976425630302257,-1.420441331275121,13.912187764297812
2023-12-06 15:44:59.523763,48.39158440590782,-1.5481665899431807,0.8746092139807168,17.483440330260297
2023-12-06 15:44:59.525780,2.9878412007272313,5.544634524727658,4.667805426415305,13.504249537072083
2023-12-06 15:44:59.527790,-37.43180510453228,9.699410124580366,1.9301431584681696,-4.747492320429782
2023-12-06 15:44:59.530803,-23.16498921999865,6.333454434036883,-2.0262074800679124,-0.6512204902263702
2023-12-06 15:44:59.532945,28.654709913257335,5.5435714709015596,-0.4119376499047464,22.347219541359056
2023-12-06 15:44:59.535970,58.538093293113484,8.2347480799028,-2.059197702636496,17.654021981557417
2023-12-06 15:44:59.538056,26.183570355628042,7.27740627205798,-12.767210166175504,9.980709733388727
2023-12-06 15:44:59.576822,-26.317184308157014,1.3456503089890457,-15.400104999104935,3.561999023048581
2023-12-06 15:44:59.576822,-38.56686536996271,-5.448304668753641,-6.217828242896132,-8.357125984184874
2023-12-06 15:44:59.578933,5.06319782380628,-8.057952164672226,-0.5152411891638908,1.1160230410150243
2023-12-06 15:44:59.582229,47.30650000152438,-4.817478206484966,1.4757050504091986,9.777727830056651
2023-12-06 15:44:59.585269,22.606629258495367,-2.988851408970105,-1.012091045148698,2.0521743198661397
2023-12-06 15:44:59.587295,-26.037186127844684,-2.295032702058521,-3.694327573917121,-2.3972868188064114
2023-12-06 15:44:59.589331,-33.11827476624344,2.8800322839507255,-0.23611597587387637,2.44412833124192
2023-12-06 15:44:59.591365,3.1746147245034586,0.988741523254471,0.72069810211873,13.327105133098225
2023-12-06 15:44:59.594515,43.590522276358605,-5.654663782322937,3.129802277818449,18.95755670340636
2023-12-06 15:44:59.597569,33.24977991980574,-2.0145854225244193,0.6914334832703156,14.231424274099192
2023-12-06 15:44:59.600590,-13.344234260947735,0.7672278337766462,-14.10278973037493,2.963715787578056
2023-12-06 15:44:59.602608,-32.284358452038575,-2.2249349308121538,-16.59246315804166,1.5884958096711272
2023-12-06 15:44:59.609778,1.6911825033856709,2.406552504175176,-5.767184290574083,16.081205446027795
2023-12-06 15:44:59.609778,54.31925523983211,10.274018885165813,1.0949987309132052,18.752131100552933
2023-12-06 15:44:59.611914,50.390489255324475,6.705415047998257,1.0025242792994564,7.305793550056226
2023-12-06 15:44:59.619963,-6.3222219527516375,-2.4661080027550524,-5.459290164357981,-1.2686585252984077
2023-12-06 15:44:59.620968,-33.350490455135294,-4.272188372186667,-8.526273130511225,-3.5182545121596904
2023-12-06 15:44:59.620968,-6.836024754013393,-7.906874749929695,-8.496985023940216,2.3589774164408266
2023-12-06 15:44:59.624021,35.031195216890005,-12.32271475313945,-6.19062495750192,7.527116285181427
2023-12-06 15:44:59.630033,38.486702080238196,-5.726270081925594,0.5261394503435117,7.989264440925702
2023-12-06 15:44:59.633057,-9.30491178490332,-2.840809397327583,-0.01251538918922422,-3.515254911596209
2023-12-06 15:44:59.636091,-47.78195708610387,-7.299927813307097,0.20706915279737573,-21.379828241409836
2023-12-06 15:44:59.639109,-23.107848679787622,-8.451350556558586,4.1771332109428805,-10.767013827655822
2023-12-06 15:44:59.642119,32.969894144231965,-8.095209466319279,-0.35505730388545415,13.22592594149742
2023-12-06 15:44:59.648273,39.3194061103254,-4.130315083348698,-4.1302573923574855,12.740485927606036
2023-12-06 15:44:59.648273,-5.867180646885683,0.8055688992738473,-5.26489487400919,-1.6888049433870018
2023-12-06 15:44:59.650463,-36.010800365700355,1.3992834059446053,-5.326608032948608,-8.800030120911895
2023-12-06 15:44:59.655505,-25.00785066281149,-2.9048478663674255,-4.50940814698684,-2.1001197658580337
2023-12-06 15:44:59.657654,18.61255061555723,-5.687741371574745,-9.194866713662668,9.545852733547951
2023-12-06 15:44:59.659676,42.16540090696639,3.3080577436819802,-3.165231239698674,11.671513455348636
2023-12-06 15:44:59.661929,3.0503401565191903,4.740325277406873,7.805874790614563,-1.2033543734116703
2023-12-06 15:44:59.665444,-34.13084577460589,-6.119140211364417,-1.1452412124922788,-10.457816669035768
2023-12-06 15:44:59.668497,-12.147690554846264,-2.4718764923169485,-10.237683904656693,4.495976010623311
2023-12-06 15:44:59.670513,29.196724333804465,3.2792517113989974,-3.3616919719522977,16.551282081041872
2023-12-06 15:44:59.673532,34.442479581611025,-1.8598560875846832,3.691595725616838,9.585395328798269
2023-12-06 15:44:59.676557,2.139328170673794,-3.548840174050963,0.7124155882351585,1.985584559849835
2023-12-06 15:44:59.690932,-23.367681665883755,-2.7219851390639533,-7.249683806038999,-3.3100173716383074
2023-12-06 15:44:59.691949,-10.317610377895704,1.1466457913868167,-7.152215726048718,4.057486606958318
2023-12-06 15:44:59.693960,28.976277755116087,4.022321568054123,-3.5063519032051182,18.679117797716337
2023-12-06 15:44:59.697958,45.007811049511695,-1.6151305646702088,-5.475209443957834,16.554959765778886
2023-12-06 15:44:59.700961,14.023907628515282,-3.1294121901955356,-3.0400784827286653,4.277102014433104
2023-12-06 15:44:59.709961,-19.858396012968193,-1.6762028300313287,1.4363976769623124,-7.268255098482652
2023-12-06 15:44:59.709961,-16.85462613081523,-5.357643320840259,-2.2660183393067155,-5.492810100982606
2023-12-06 15:44:59.709961,18.382045136821073,-4.523568815561625,-5.64410987699611,11.550480616270368
2023-12-06 15:44:59.712977,42.343939095742634,-1.7817680033456675,-3.725110866202706,16.183669574260136
2023-12-06 15:44:59.720030,18.214410346902707,-5.35278525662333,-4.231831755820611,4.225243952214562
2023-12-06 15:44:59.723268,-17.870210691473474,-7.021950023628135,-6.200266145536235,-5.0021822481661555
2023-12-06 15:44:59.726288,-20.542601482579826,-3.0759099508147694,-3.4431852523546027,-1.3939598356135217
2023-12-06 15:44:59.757888,10.489905501831768,-0.3096191023807801,-2.387237588710034,12.418210373873347
2023-12-06 15:44:59.758889,38.98080217979038,-0.5343276998818758,-6.642469657501062,21.323363030233637
2023-12-06 15:44:59.761914,20.979763839190493,-0.7182859427618121,-4.799599905390914,15.466778635763614
2023-12-06 15:44:59.764935,-16.73399745772264,0.4318602543023213,3.903554248185529,0.013388712894546038
2023-12-06 15:44:59.769037,-22.61648627483943,0.9478829325559254,6.967302789096415,-6.391573392107755
2023-12-06 15:44:59.770044,5.4355699012736105,-1.1267931794179513,2.8407032595773147,5.094078689939496
2023-12-06 15:44:59.774093,36.05920114233994,-1.9334611425977246,-0.19899873746435348,15.978193271094431
2023-12-06 15:44:59.777130,28.770135128106332,2.5392491390061043,1.7645523687160753,13.793476760175075
2023-12-06 15:44:59.779437,-0.6305261458320821,5.231366864395841,3.43429678672661,5.046509503227359
2023-12-06 15:44:59.783131,-9.619667173053157,1.4922498696436655,0.6431494580602063,0.5907682901656686
2023-12-06 15:44:59.786365,2.7912100472567367,0.23097884745030273,-0.9450562233220017,6.0179094697834765
2023-12-06 15:44:59.788402,22.04408374725277,1.6087185581926506,-0.13970780670808952,12.182987516235407
2023-12-06 15:44:59.796966,19.60168206387026,0.1617479416226376,1.148221555043228,9.180392264636284
2023-12-06 15:44:59.796966,-6.274224832923306,1.4584091813549709,6.014888635768679,-0.6312450088892724
2023-12-06 15:44:59.800320,-17.78629247644887,3.2333407510999086,8.406966017434184,-6.804637766479238
2023-12-06 15:44:59.804348,-5.311830232818288,1.4591370584058276,5.613390158014607,-2.2019027543429908
2023-12-06 15:44:59.807431,15.458663595936486,1.1631527054456037,4.054210525764561,5.563024079425669
2023-12-06 15:44:59.809439,18.24830335788457,-0.5142202095689594,0.9272458849184317,6.3491470209603165
2023-12-06 15:44:59.812635,-4.071431287074732,-1.6600944302579193,-0.0002110551133206455,-0.5606791408358928
2023-12-06 15:44:59.820367,-19.92586128533512,2.4458518333328083,5.494698754757252,-7.414465444886365
2023-12-06 15:44:59.820367,-12.700023963724838,2.749554787742928,6.460750821270575,-5.236452256707127
2023-12-06 15:44:59.821372,6.059827748236131,-0.5173251887253092,3.680384135838201,1.7252574695510696
2023-12-06 15:44:59.826445,12.398092289117695,0.35911161782171913,3.6100751773954585,4.133912386092665
2023-12-06 15:44:59.830648,-2.510074715704845,1.4526460701380874,3.1398269791482507,0.3923696745733826
2023-12-06 15:44:59.837921,-15.03187099254307,0.06890116630434988,3.220497629901256,-5.6213002700981125
2023-12-06 15:44:59.837921,-11.101868385572052,-1.038695876819163,3.9283946705189865,-6.095896531698238
2023-12-06 15:44:59.840068,3.357301809061372,-0.6180586975457114,2.7156958825507003,0.4093381418711834
2023-12-06 15:44:59.843079,13.245563485903103,0.7184310098240904,0.6873290362179302,5.66593837999944
2023-12-06 15:44:59.849485,4.618113561501336,0.6107875789522614,-0.6051527180241464,3.812995393193504
2023-12-06 15:44:59.851504,-8.81962675865384,-0.3571785220351433,-0.19613821620943345,-0.7397831435168781
2023-12-06 15:44:59.853545,-7.450211732699251,-0.03217269077681115,0.7058588402958875,-0.33672201660087303
2023-12-06 15:44:59.857583,4.335711177080416,0.050463966859585895,1.2411413898021175,2.3987256042140985
2023-12-06 15:44:59.860659,10.136047924333758,-0.13368925251498626,1.1076968821077253,3.954446662222452
2023-12-06 15:44:59.864810,3.1629204246762055,1.0798043121031464,0.2532988173655454,4.228913266039982
2023-12-06 15:44:59.867868,-7.270670359384804,1.9322900476580749,1.5699239413219968,-0.18910538471229343
2023-12-06 15:44:59.869881,-8.39234035502512,1.26639811968307,2.831266307494163,-2.825675833015304
2023-12-06 15:44:59.892752,2.4977812041008414,0.17544472392815497,0.38458428134746775,1.9315452106634827
2023-12-06 15:44:59.893758,10.104286635753741,-0.29012127657957376,-0.8226687046316546,4.611530346365512
2023-12-06 15:44:59.895782,2.6546407774552,0.36980259083742717,1.5408032652649741,1.2874348349988365
2023-12-06 15:44:59.899818,-6.819574030835596,0.6028658213057166,2.432604401696824,-2.4319874226070652
2023-12-06 15:44:59.904986,-7.0203623436294995,-0.17019761772234165,0.5971348730599331,-2.1105961760886185
2023-12-06 15:44:59.905992,0.48362185764992444,-0.47614309859126946,-0.5556931813560035,1.6024920790968948
2023-12-06 15:44:59.909143,7.972729652740528,-0.41101852747261636,-0.45903159843933344,3.6041337338591966
2023-12-06 15:44:59.914224,3.841967389814169,-0.47077544961938095,-0.47940115614444423,2.0474736002219354
2023-12-06 15:44:59.918265,-6.322791605240731,-0.5139369790288434,-0.23878260367553295,-1.3084189862138411
2023-12-06 15:44:59.925877,-7.841400674540576,-0.09500536350737793,0.21961875581567095,-2.4423275579717503
2023-12-06 15:44:59.925877,-0.12466348368053314,0.6501548246245034,0.518314417010562,0.47705090618459584
2023-12-06 15:44:59.926897,7.232208183536606,0.3686131610550295,0.9758967690369589,2.0988796524727182
2023-12-06 15:44:59.937280,25.739915014641852,0.9295984016198507,6.835975406377126,-0.9355602789184271
2023-12-06 15:44:59.938287,-28.623509009117655,4.047892082768097,3.9993282841721305,-10.59012972509551
2023-12-06 15:44:59.939425,-45.03493171362532,3.5605575246952563,3.7135793165112627,-16.826124225641607
2023-12-06 15:44:59.943535,-6.385603494482303,0.389101588834705,1.1521816255665511,-3.62839823648791
2023-12-06 15:44:59.948313,62.29566152574945,-4.493878004096691,-10.949563423148813,33.90046419802896
2023-12-06 15:44:59.952351,55.92751505250469,-6.522344957356494,-16.3505188336562,37.49508631750872
2023-12-06 15:44:59.955436,-26.676273787543156,1.3614590252359402,-2.4954498943708643,-3.1440217197727107
2023-12-06 15:44:59.958480,-53.784141087708214,2.689122870737015,6.184349418245808,-25.541319417399716
2023-12-06 15:44:59.960760,-21.33376996400939,-5.649573553890174,0.8763045993936246,-18.2217405973756
2023-12-06 15:44:59.966082,15.428860335333399,-4.505629350685078,4.669205522399675,-9.525229260787444
2023-12-06 15:44:59.969159,19.97716288535918,3.3381935083977443,12.434610830846719,-8.402663486014973
2023-12-06 15:44:59.971176,-25.378330835194514,3.221987079830337,8.266323500049662,-17.808676173582256
2023-12-06 15:44:59.973242,-52.1260849785881,-2.11403486874019,2.5917197354730988,-26.444827007572762
2023-12-06 15:44:59.976638,-14.890523458933057,-1.1342026711944442,2.1226731508562366,-10.760620665676118
2023-12-06 15:44:59.982683,54.00775332369788,2.1526480580546217,0.1387278201247504,22.43874134824113
2023-12-06 15:44:59.984705,77.41594787280665,-2.3999144895738027,-6.359906770511241,34.28249606729939
2023-12-06 15:44:59.988973,15.838930860344567,-6.488719334764026,-9.246584819179596,10.601312543679693
2023-12-06 15:44:59.990978,-42.08928612120291,-0.12083112989621832,-1.8526370493132747,-12.223334534022532
2023-12-06 15:44:59.994009,-22.26661097616455,6.5311863765750875,5.17518427508764,-6.347935091233772
2023-12-06 15:44:59.999258,34.816575700038165,2.626070463157575,5.164053867356446,7.868638308948787
2023-12-06 15:45:00.002454,49.844023072698974,0.4310645144047749,4.1773097926913145,11.39808058534912
2023-12-06 15:45:00.006466,2.810790435776799,6.0058304036010535,3.8925737570781256,3.7132799078702328
2023-12-06 15:45:00.009906,-42.001123521893234,4.1616462496933435,2.081658880492404,-12.21923302369306
2023-12-06 15:45:00.022521,-29.922621372662476,1.8228129584760657,-0.3574518724150048,-7.803358580250593
2023-12-06 15:45:00.028647,38.96621198632412,8.240214226034412,0.8934783306179189,24.001380345850418
2023-12-06 15:45:00.029657,75.90306405101309,6.610625723921056,1.9114636191485603,32.67501605904312
2023-12-06 15:45:00.030662,8.65720193284901,-2.03733959980401,-1.4913880573202452,1.3140137863139196
2023-12-06 15:45:00.035389,-60.21856346970793,-5.056615558670414,-2.8047059276327135,-25.315619571859653
2023-12-06 15:45:00.040422,-42.101872683445364,-3.547487876240556,-2.992994903472757,-16.55288211672257
2023-12-06 15:45:00.042456,30.676132852650415,-2.286763724840392,-5.715446920367152,14.490164560042796
2023-12-06 15:45:00.046532,81.75288698037754,-5.4837051344655805,-11.433126644405203,35.86269734217957
2023-12-06 15:45:00.050058,34.68801427380435,-4.306263880271187,-14.205725652543425,25.467010740408035
2023-12-06 15:45:00.053067,-53.61415543985588,5.31817846459899,-0.9170527457064461,-10.97679209196318
2023-12-06 15:45:00.056582,-82.05190714410851,6.133381763207633,10.009500790989325,-35.74568133780056
2023-12-06 15:45:00.060599,-46.76880644335132,-2.4085437760774977,2.4752826328233373,-24.407251832582126
2023-12-06 15:45:00.061982,-2.7079574602485352,-1.7533280709372996,5.306094373621677,-12.399380776083031
2023-12-06 15:45:00.098895,-24.98229747522342,5.811783428035528,19.375360311254834,-29.595223905833702
2023-12-06 15:45:00.098895,-75.50254945169522,6.396138661450839,17.44114673019146,-43.00763722717862
2023-12-06 15:45:00.101972,-63.68368512443796,3.703475641357236,5.853471348715991,-26.313611212103805
2023-12-06 15:45:00.107064,-6.600810670271668,1.772067928041691,-1.5212309826870836,0.6833022231393104
2023-12-06 15:45:00.112620,42.460231773647486,-0.03535870609967874,-2.3739222244064906,15.978569257397442
2023-12-06 15:45:00.113625,25.99819655809823,0.3298114497460455,1.3226959754382048,5.912503626785447
2023-12-06 15:45:00.116834,-54.72743869771395,-4.968612305645657,3.2690658654006493,-30.41981141734004
2023-12-06 15:45:00.123451,-94.78294287885196,-10.319941267299301,2.6246209496934605,-49.4808522913379
2023-12-06 15:45:00.125492,-39.29765113058741,-5.962045462160712,0.35054020435176453,-22.200178159556767
2023-12-06 15:45:00.127582,29.78740272973372,-5.635423009851501,0.8158852363544379,0.647981963284194
2023-12-06 15:45:00.131632,20.115858498110942,-8.833770179883116,3.8442915843231455,-10.135197507946204
2023-12-06 15:45:00.137023,-30.67725421920907,-7.145023522631645,-0.5463684952525659,-19.040439430898264
2023-12-06 15:45:00.145147,-53.7342693358932,-6.679290851890169,-4.969274052101201,-20.476917554030344
2023-12-06 15:45:00.151820,-23.79985816580718,-7.67298928542717,-4.244710378874102,-12.450509140998149
2023-12-06 15:45:00.151820,46.191131326792885,-6.304180378699986,-9.04340632386843,18.087768284038635
2023-12-06 15:45:00.152990,53.038969008498036,-0.3825592447689042,-8.768424787963909,27.08474623333462
2023-12-06 15:45:00.154130,-15.331055267586597,0.24552812119727999,1.1109000978626096,-6.048372024027665
2023-12-06 15:45:00.160718,-58.2272424549646,-9.522676014075062,2.6591814404099914,-32.94766174226203
2023-12-06 15:45:00.164742,-41.53451927538014,-9.87146739655841,0.5170525103467695,-24.903259400969098
2023-12-06 15:45:00.173276,38.93995098315588,-2.2395367554439574,0.18638776337098048,9.980801528000294
2023-12-06 15:45:00.175403,83.46569236303603,-3.851665447264678,-8.084595448414175,31.275895518140064
2023-12-06 15:45:00.178416,8.440190867329733,-6.517035243313984,-13.81029349196081,11.037849915034572
2023-12-06 15:45:00.183801,-52.64236211065842,-2.3305574941634295,-10.071956304441384,-7.687283527430146
2023-12-06 15:45:00.187074,-21.25048772225189,0.4099853179333027,-8.381963307752626,3.2252711531641975
2023-12-06 15:45:00.196543,35.35646665106833,-3.692347459864508,-7.54941064150891,15.827725229030259
2023-12-06 15:45:00.196543,50.38734996676615,-6.593285308218446,-6.05015568038999,15.88915910353855
2023-12-06 15:45:00.197607,8.664218710982576,-3.3435424792650243,-12.106724601118003,12.31646872746525
2023-12-06 15:45:00.200906,-23.023681194743403,-1.6964635857436137,-19.872848256136383,11.673324986763843
2023-12-06 15:45:00.207302,-3.7503890251356213,-3.8520368974841537,-17.9407099959334,13.263408183375818
2023-12-06 15:45:00.210370,40.31819818728128,-9.006905417866713,-11.97110038011463,15.922368735563692
2023-12-06 15:45:00.214619,52.822237347095644,-13.301142950295388,-10.068817341999416,13.768146551477592
2023-12-06 15:45:00.219898,9.189567612904748,-8.26403131330008,-7.023243266929243,2.268532588412884
2023-12-06 15:45:00.221933,-25.989929377214324,-0.07941197660391426,-0.6779608220395598,-6.763247483143433
2023-12-06 15:45:00.225093,-10.715710220815694,1.8925603287962827,-1.342063278934371,0.358133306698428
2023-12-06 15:45:00.229681,43.50169694001717,0.5410339629608559,-8.229877614020408,21.748469862569777
2023-12-06 15:45:00.234731,68.75151282662877,0.8501363043894565,-5.458885786348553,27.115650511846574
2023-12-06 15:45:00.236802,11.73642930915629,-0.10839766242437844,-0.6071465255927718,4.861749552946417
2023-12-06 15:45:00.239816,-44.87700248682778,-6.481963466454908,-7.415379152572094,-12.17353286322893
2023-12-06 15:45:00.244863,-42.944774598402326,-7.940501175937908,-9.006597966406272,-11.568804837769886
2023-12-06 15:45:00.256668,11.711124919480103,-0.5838807987873185,-2.6386022228996993,5.982315393793364
2023-12-06 15:45:00.256668,55.73266726316381,1.2286473857163105,-0.7138538715520284,19.004219945847222
2023-12-06 15:45:00.257898,-2.6295800367972983,-1.6635249685916056,1.21827379546715,-2.0220831265733774
2023-12-06 15:45:00.262042,-63.90051291663567,1.5353577902564681,-0.7630417543680396,-15.886001957169913
2023-12-06 15:45:00.266092,-41.72830456158672,1.9596472058080197,-7.191412793790707,-4.485140104188332
2023-12-06 15:45:00.269246,6.593953167376288,-3.1532581765428587,-9.26533935216574,7.10270788261805
2023-12-06 15:45:00.273663,48.1212750313169,2.5008949700095857,-9.915989232274798,24.30121280928908
2023-12-06 15:45:00.278351,33.192353385173604,8.723933754282214,-9.113796784569987,23.921526162905902
2023-12-06 15:45:00.284016,-11.881156687326863,3.34606999058139,-5.384501091933069,3.4956245591906923
2023-12-06 15:45:00.292511,-25.00148293388236,5.935766008408127,2.1594494605526657,-3.726796784123129
2023-12-06 15:45:00.293529,-4.333171038160184,9.246602549810055,9.259558443720689,0.0022573201443850275
2023-12-06 15:45:00.294537,55.00960333215304,2.3467650300090765,-1.0931350888955758,18.77513408815325
2023-12-06 15:45:00.297625,57.21479525866413,1.9552223965165028,-19.631008548766548,31.19275125139552
2023-12-06 15:45:00.305068,-17.41125635373929,1.1200256990697066,-16.805323200318707,7.157507673930591
2023-12-06 15:45:00.309068,-47.134612530777744,-3.9852970777845003,-1.5329671099461228,-14.965138839404762
2023-12-06 15:45:00.312500,-16.00701247590303,-5.999269127470515,0.1533396169257269,-8.47291214583494
2023-12-06 15:45:00.315277,39.34485206904183,-6.4169430913001655,-1.3306814976242676,7.916824581233659
2023-12-06 15:45:00.318645,43.694445933539136,0.16105923630197155,6.712267367052456,8.794492739760718
2023-12-06 15:45:00.326093,-20.381100923310203,2.075093232340009,9.865601902214836,-9.850738637544847
2023-12-06 15:45:00.329376,-37.75927342267827,-2.6690157379286803,5.908985331927398,-15.759093037631892
2023-12-06 15:45:00.334756,6.481398799277691,-4.106343101125217,1.4947954177590028,-1.691765421240915
2023-12-06 15:45:00.341919,57.66355146591994,-8.941866279673324,-3.2143904661426688,12.302183437715183
2023-12-06 15:45:00.341919,63.75396132104286,-4.103819538592192,-1.5298353494249812,16.186683770296952
2023-12-06 15:45:00.342922,4.904666589792106,1.7180375225201974,-0.9646087459409729,3.1434311275576894
2023-12-06 15:45:00.348003,-33.05950933434798,-7.128164812669388,-9.059684432276109,-8.75559973610335
2023-12-06 15:45:00.352638,-14.643209130856118,-3.2882706646791204,-6.779740806654267,-2.443651359151113
2023-12-06 15:45:00.363938,21.14869981703114,5.659493354733729,5.755673069676185,6.606342285018198
2023-12-06 15:45:00.363938,27.024930507942557,3.8757666969875473,7.160184552019275,6.447082180771951
2023-12-06 15:45:00.366080,-17.040014077914286,4.050648171111313,3.0328186907387336,-3.6063213736357835
2023-12-06 15:45:00.370361,-52.82367286220578,4.0600055352143904,9.778704990229805,-16.88310581528325
2023-12-06 15:45:00.376143,-37.056157291784075,7.162655427273587,21.058592125558622,-16.18494473994181
2023-12-06 15:45:00.380190,22.62892516928998,4.518705117958564,15.66338821550324,1.3585183554123232
2023-12-06 15:45:00.384643,47.615058557449935,-9.924975972578798,-2.7015921954639586,8.628666227306972
2023-12-06 15:45:00.393549,-1.6882802311506044,-10.539568769599695,-4.597774641972013,-4.346866473898423
2023-12-06 15:45:00.394561,-25.96525234588757,-0.6179376227930684,1.8115116181025277,-8.458466021230054
2023-12-06 15:45:00.395558,-9.014935403530476,1.4376824656116898,-0.626458128058399,-1.5850719238797637
2023-12-06 15:45:00.398558,21.42082849274166,-0.1473232718366852,3.9881510938569056,3.9076777009928714
2023-12-06 15:45:00.403959,53.34678889678615,-1.3161245299652509,2.325674674769881,12.730609699003104
2023-12-06 15:45:00.407119,17.932884672793136,-3.082398817521786,-9.679094600548247,7.3426706667340715
2023-12-06 15:45:00.415203,-30.33104975280187,-3.6745191158406523,-4.103178878265167,-8.6011616224777
2023-12-06 15:45:00.419565,-19.89907978994472,-1.3263570407190444,-0.6455881556401768,-6.004209135487381
2023-12-06 15:45:00.422776,19.399707206581446,-0.5479006318669233,-4.101472884952356,6.609645288374275
2023-12-06 15:45:00.427814,53.547370031090495,0.5619801886619981,7.900014766445995,11.378736112328161
2023-12-06 15:45:00.430016,25.859268752083594,2.7493639323815895,8.166793034165293,4.920175165844595
2023-12-06 15:45:00.434330,-26.821959715194957,-1.1019982681033496,-2.369511221475742,-6.988805698407606
2023-12-06 15:45:00.446517,-30.464106110584474,-0.9925549310140331,6.952353948659801,-11.782344048472323
2023-12-06 15:45:00.446517,2.514227539592021,2.955133877961056,14.417120527761659,-3.797678168956477
2023-12-06 15:45:00.446517,39.4657691028719,-1.9322785446677326,7.228059342975738,6.646249274312561
2023-12-06 15:45:00.452134,15.996130974519792,-4.101219881689076,6.726077908404264,-0.5917038301829293
2023-12-06 15:45:00.458533,-39.36131680233914,2.6958975294774845,12.01185756878135,-14.174135913422527
2023-12-06 15:45:00.462627,-37.33362364447316,7.555559369165188,8.779599210312472,-9.85249319004549
2023-12-06 15:45:00.465292,4.853524531802791,5.968678336507486,-0.5748866802953482,4.512657809921289
2023-12-06 15:45:00.479381,47.38421836724852,4.639963054291357,-1.5436470894936838,15.739035241721949
2023-12-06 15:45:00.480382,40.48862245948425,6.934570242209051,5.1713919203528995,12.105663242875625
2023-12-06 15:45:00.480382,-15.722739348175734,4.176382576148145,8.405045520450338,-5.192592847528206
2023-12-06 15:45:00.482380,-43.841422715114916,3.2820401174097533,10.69154262706713,-13.760555211453116
2023-12-06 15:45:00.487428,-13.848360261707525,5.823712051328891,7.81125277558342,-3.60200747267457
2023-12-06 15:45:00.492869,40.04119557341747,0.2296487151051584,-0.2266439314409137,10.656155554402085
2023-12-06 15:45:00.498175,38.23313406438946,-0.018343494487601586,3.74322562325494,9.06198834506823
2023-12-06 15:45:00.503766,-21.426664842821147,4.188688174407707,9.691205517451202,-6.689188392487646
2023-12-06 15:45:00.508909,-51.78916244913494,1.2430445866885826,4.062770137226062,-14.799255199935564
2023-12-06 15:45:00.513345,-20.766310202784673,3.2068938819360655,-3.1407351305010365,-3.6050357050719284
2023-12-06 15:45:00.518428,45.56041955350198,3.9310290666407113,-9.385237962218838,15.777921350652083
2023-12-06 15:45:00.523978,50.76957751577742,-1.2721949519309774,-9.257297005603448,15.568693585802878
2023-12-06 15:45:00.527151,-20.451807969047486,1.751642231233357,-0.7356643282912896,-3.2524904142729394
2023-12-06 15:45:00.531252,-52.36470864560744,8.259222662052663,5.057587167016494,-11.605017163167355
2023-12-06 15:45:00.534295,-26.76577720996557,8.355629927994197,11.912916626917127,-7.06325883885007
2023-12-06 15:45:00.538499,24.85494039244391,3.7773299550864246,18.315737308997875,3.0667797364041482
2023-12-06 15:45:00.543691,52.14859665898075,4.756667316795222,10.340164504324827,12.270991162173644
2023-12-06 15:45:00.553627,4.696173977594824,8.715220230303377,-1.17629726433139,4.705471850351217
2023-12-06 15:45:00.554908,-39.65804601453473,-0.9059607505777469,-0.2566838544053605,-12.394091574568378
2023-12-06 15:45:00.557948,-25.357397931699467,-9.744443098844854,5.985129837911095,-14.40509087437764
2023-12-06 15:45:00.562008,19.5641805057209,-2.914087719784353,7.695477019449737,1.0333831667038424
2023-12-06 15:45:00.569334,43.20155556941513,0.5182669719359824,4.186312958109853,8.83908834678349
2023-12-06 15:45:00.572534,5.606220720135497,-3.2259062063595345,4.467764445508167,-3.4574604722912183
2023-12-06 15:45:00.578129,-37.49086467126567,-4.10706778960044,8.298705343242696,-16.35515677380365
2023-12-06 15:45:00.581210,-28.663336840163332,-7.110531039533111,-1.6631504424095558,-13.046380217205972
2023-12-06 15:45:00.584405,24.299011885471717,-10.57852280274571,-11.740652806046153,2.2558984402893696
2023-12-06 15:45:00.596680,52.84463418860412,-5.182932689282862,-2.723544068744767,10.582642499873028
2023-12-06 15:45:00.596680,6.498470435979393,1.8585026175354329,1.583468459287714,1.4416555195364538
2023-12-06 15:45:00.596680,-38.73014070141272,1.2338077339889972,-3.1590871854628366,-11.291772883589875
2023-12-06 15:45:00.611413,-32.1745631418729,-1.6400950013884923,-2.5791724796998126,-12.132507557770742
2023-12-06 15:45:00.611413,13.073291602738905,-4.0342130241539556,-8.963731919527634,2.2001559172006524
2023-12-06 15:45:00.611413,54.99105196071287,-2.5856036599607575,-16.093477088149584,15.15394244285761
2023-12-06 15:45:00.615506,21.48408172468165,5.4778514175218405,-8.416927675011593,7.629018288451509
2023-12-06 15:45:00.621586,-38.95779184299305,8.665128886692036,0.1976741502198293,-7.930321985859439
2023-12-06 15:45:00.626795,-50.5822376834177,7.113948230613277,3.6365551214357277,-12.163735317972236
2023-12-06 15:45:00.632017,-10.30633118713655,9.236908573358187,6.885988842890909,-1.0768011282686636
2023-12-06 15:45:00.638604,48.45666152987055,7.855230592604268,0.43818468105881986,15.209944469052004
2023-12-06 15:45:00.641635,34.543167605766826,1.3503961376232059,-13.155261428095004,13.696834455687942
2023-12-06 15:45:00.646278,-37.81174095015948,0.265382016627794,-10.782054753053309,-5.33212714999319
2023-12-06 15:45:00.651098,-63.98254472590302,2.066335939108645,4.062148841923268,-16.502317716748752
2023-12-06 15:45:00.656289,-20.785147359955968,-5.779489181867341,5.914361723117117,-10.512702362514691
2023-12-06 15:45:00.665838,37.96594760125032,-12.555420059956772,1.569566686523293,1.5130068010366695
2023-12-06 15:45:00.666859,27.502293241741995,-4.12177641990021,5.157000905660036,3.241695246720508
2023-12-06 15:45:00.669122,-27.112748339109775,3.807772034589758,7.279504806442234,-8.71082579342992
2023-12-06 15:45:00.674192,-39.87773285703201,4.455092237545878,9.708702725664782,-15.254100789374041
2023-12-06 15:45:00.679235,-9.862231634312293,5.2442972964098535,14.503554004225165,-4.295666575322127
2023-12-06 15:45:00.681721,34.06747485283719,1.5561546727787612,10.148659833734769,8.636797517171921
2023-12-06 15:45:00.686975,32.568454286920556,-5.09306845984492,1.595047127745595,5.73790079849506
2023-12-06 15:45:00.690409,-22.93415205947295,-8.02671417897585,-1.118875068396447,-9.946672993870912
2023-12-06 15:45:00.696598,-56.0846689795186,-6.4034432972304804,-1.463911053284454,-18.58574369118881
2023-12-06 15:45:00.704047,-33.43342286781812,-3.629682714315226,-5.226237530061755,-7.855702619969796
2023-12-06 15:45:00.708100,24.880941341374026,-1.6881837932334882,-10.013655751261432,8.115771005150537
2023-12-06 15:45:00.718519,38.838936387630966,2.8112484581886714,-7.762507032900513,10.445063416234504
2023-12-06 15:45:00.724856,-17.052052673841622,4.056458463428703,-2.0975908131130603,-1.8891306557781027
2023-12-06 15:45:00.724856,-50.620598551389165,1.6894034432760874,-0.9723953335812012,-14.096495467673329
2023-12-06 15:45:00.724856,-25.904728957309093,3.6994372034005547,1.0961014401840656,-10.442348326505394
2023-12-06 15:45:00.730266,25.031287652830276,3.9914121343785096,6.6664746401787,3.246700248287505
2023-12-06 15:45:00.735824,42.464703595007826,1.85384902755352,6.399048996787964,9.8565909579883
2023-12-06 15:45:00.742039,-5.728051509098214,0.29856129448847984,-0.3715970460229988,0.29654389764135414
2023-12-06 15:45:00.746343,-50.60432147465612,-1.344180762974157,-3.3811059644931065,-14.427472892617324
2023-12-06 15:45:00.750874,-35.851755135981,-0.1329092247943506,-2.593887720914766,-8.989653170898704
2023-12-06 15:45:00.754929,19.170094727860995,-1.8581588603529908,-4.028930330704321,8.028375733359363
2023-12-06 15:45:00.758338,43.945509825708896,-1.6692540461102725,-7.303965280552125,13.012632384268093
2023-12-06 15:45:00.764035,-0.00787536352468266,4.414050258386601,-4.981526104489154,3.962773046748964
2023-12-06 15:45:00.770677,-48.79135135342579,1.9240993909141029,7.170678992613075,-14.455523453657753
2023-12-06 15:45:00.781305,-39.911183176482936,-1.3330975546391761,8.121713331178503,-14.584947603777234
2023-12-06 15:45:00.781305,19.264790345382558,4.645655034989778,-4.922557025041402,8.660149539524323
2023-12-06 15:45:00.782526,47.701347400000586,7.758925057550633,-0.600202197738824,15.980912077879225
2023-12-06 15:45:00.785930,-8.155071076930048,5.0140802933181545,11.239458274911836,0.15707805023546728
2023-12-06 15:45:00.791975,-66.92714117788262,1.6813812561015622,9.948441053215385,-16.70202104124555
2023-12-06 15:45:00.799327,-52.885383178732624,0.06501007536951152,6.015740171986111,-11.139490870306592
2023-12-06 15:45:00.804606,9.380703929711302,-0.9402184421807999,-1.5017514468236943,7.550705565712777
2023-12-06 15:45:00.809101,43.26222505242673,-0.7554464452054481,-7.00158575488315,6.796288468701488
2023-12-06 15:45:00.812216,8.863967364276245,1.2370524252534019,-3.541605485108793,-3.0611185741301274
2023-12-06 15:45:00.816630,-42.42683862883209,0.9490995787511461,-1.8198010349871838,-15.708025564703126
2023-12-06 15:45:00.820678,-53.552894227373024,3.2617142421612066,-0.6861603753199281,-21.95977467185887
2023-12-06 15:45:00.828235,-3.96996003452504,7.566455399625195,-4.511023454859913,0.007006671028444879
2023-12-06 15:45:00.832845,49.18563410711053,5.2125870241144305,-15.267136281604786,13.38810906227791
2023-12-06 15:45:00.843875,20.121526801497517,4.127299708063255,-13.92026677155438,-0.3856072810382904
2023-12-06 15:45:00.843875,-44.48151777376799,4.77946258385478,-1.9460442840148822,-14.954249027735246
2023-12-06 15:45:00.845910,-60.536740201040246,-2.5863322974503564,1.050500810259508,-15.406223284905332
2023-12-06 15:45:00.850435,-13.919856477221934,-5.810846584554295,-7.505028560235039,1.9983250337987608
2023-12-06 15:45:00.859553,45.88957401219874,4.309552040483901,-11.164126219770784,13.220035384807957
2023-12-06 15:45:00.864706,32.83458095891778,10.745448603257657,-1.8773809453274082,7.051655032346289
2023-12-06 15:45:00.866729,-30.606708436850617,5.794162236905493,4.19629662875464,-4.472327986557767
2023-12-06 15:45:00.872191,-51.47478395173485,3.112505691383581,1.5683412979176663,-9.540718050437864
2023-12-06 15:45:00.878234,-7.401514437219643,4.272270462837598,1.675362172164945,1.4953017657366563
2023-12-06 15:45:00.880454,48.28540835144777,0.4876905888889928,3.96847288385811,11.361296694170948
2023-12-06 15:45:00.881483,41.4253904029605,-2.7583743434725774,5.89271238874506,12.971327354445885
2023-12-06 15:45:00.897897,-14.981028617872857,1.1294561744184897,6.194069156314614,0.7191024853702442
2023-12-06 15:45:00.897897,-51.38641744041328,3.160676140200878,-2.0829522895098553,-19.211721040907907
2023-12-06 15:45:00.897897,-25.560539652781213,-3.2083802443452023,-11.134252927914934,-6.815395821086009
2023-12-06 15:45:00.904296,38.01731877420945,-7.842833919405653,-8.911328555076551,10.703414633385643
2023-12-06 15:45:00.911121,41.256772278693504,-5.007206440352714,-8.716898838086435,3.049902026001116
2023-12-06 15:45:00.920684,-15.09999657144511,-2.1598396105241706,-15.530165169517685,-5.154696673622838
2023-12-06 15:45:00.922824,-47.736758039350946,-4.666374525775949,-13.322223347282618,-13.114125526475506
2023-12-06 15:45:00.924993,-35.74688781815118,-10.296538380457179,-9.066386432294877,-6.99222061505572
2023-12-06 15:45:00.929005,13.879449058123969,-9.000454143052826,-4.602242852504047,7.789694500682428
2023-12-06 15:45:00.936858,35.66100207969085,-2.372650358438833,11.38233028259706,3.8994785464660033
2023-12-06 15:45:00.941295,-9.148174537717589,-2.1960699533019645,18.1567962166501,-0.5337779112611793
2023-12-06 15:45:00.947226,-45.13737095549515,-0.13667922568640914,10.416533579678081,-3.971065066988017
2023-12-06 15:45:00.960040,-26.159104360718036,5.9004048768078805,6.139151817008817,-7.606858878044395
2023-12-06 15:45:00.960040,29.928628211492157,2.8498742844391614,0.7606820972817671,2.0643598957057168
2023-12-06 15:45:00.961048,56.60641690486926,-1.4829086824021736,-3.039664083326033,7.993757920049854
2023-12-06 15:45:00.979841,11.614136045856652,-0.17192415167976355,-0.6362069373290511,-3.8380287175039127
2023-12-06 15:45:00.980844,-36.07687862146502,-0.1887195434071931,-2.548247770527921,-20.632436279701196
2023-12-06 15:45:00.982004,-24.79048446723361,-0.9069138037073564,-5.130330347926416,-13.830289580661617
2023-12-06 15:45:00.986043,34.11143108308732,-0.8315107268467464,-0.9194367968685796,13.206195216501309
2023-12-06 15:45:00.995049,67.16949995033389,2.4521242368857354,2.410003132020664,24.36699924262408
2023-12-06 15:45:01.003157,24.78519890218983,8.454020370413591,-0.09393031323737147,11.883516449936096
2023-12-06 15:45:01.009304,-21.352895164880497,9.13757133111192,1.8899740190022047,-4.45111769231998
2023-12-06 15:45:01.012332,-15.512740612681906,9.593278692934835,7.696075865431092,-0.5782038715191146
2023-12-06 15:45:01.018332,29.425922682944844,15.285348916384601,4.197633193521155,12.517102134165405
2023-12-06 15:45:01.030876,67.73568374361247,15.855102396883728,-1.0914571034334513,11.342841909135707
2023-12-06 15:45:01.030876,29.896240898057815,10.874229574522289,-0.7234141202677391,3.7777615357230534
2023-12-06 15:45:01.030876,-38.99473145153543,9.716287819702169,1.3211965544050337,-9.938995837659082
2023-12-06 15:45:01.034117,-43.262670728045705,8.232300534858725,7.602925392425886,-17.080865767109074
2023-12-06 15:45:01.042684,6.594184936404148,0.288708164665556,9.720739493495845,-5.251866668334476
2023-12-06 15:45:01.049240,46.43363009543617,-6.9223056061986235,-0.25404532507012834,3.853630341930236
2023-12-06 15:45:01.054774,23.041508369643825,-7.449321014166573,-8.5054634640048,-3.1126240969150616
2023-12-06 15:45:01.058857,-39.80621781592569,-3.746784993804641,-7.137289934052526,-27.63650112282305
2023-12-06 15:45:01.064228,-60.30800860929134,0.1857681005491846,-6.977313686433881,-39.25941909725011
2023-12-06 15:45:01.071479,-13.4650470747591,1.913558458337409,-7.497608028996588,-19.426447200585795
2023-12-06 15:45:01.077600,40.864823684553635,3.169149587285279,2.1718167616153345,-0.573265513385191
2023-12-06 15:45:01.080611,26.512814530081826,5.110802795404901,6.22171766482373,4.336587580591561
2023-12-06 15:45:01.093027,-32.00742769448159,7.332997749027918,-4.312228674208739,-9.093199339101432
2023-12-06 15:45:01.093027,-51.10803203200881,6.946179242942019,-5.8126095067213095,-19.2540012733989
2023-12-06 15:45:01.094035,-9.910597790689748,2.8813412944908614,0.35043266233031173,-1.4942327384331038
2023-12-06 15:45:01.100216,46.77231904804852,3.4067221011887403,-2.948887808348677,8.621919422593022
2023-12-06 15:45:01.110502,40.10490677247694,4.808252742902418,-6.817127467139046,2.1295075329094852
2023-12-06 15:45:01.122337,-23.237681103731216,0.3277473340969224,1.7543472161036409,-12.54614296046099
2023-12-06 15:45:01.122337,-47.63121448041737,-1.6215877202455244,14.769273856881039,-25.731141736333125
2023-12-06 15:45:01.125508,-15.138660934121827,-2.7742532994175004,11.013436312163128,-14.13189879289885
2023-12-06 15:45:01.129647,24.302767943264755,-5.148608422693375,1.3949319078215936,-1.080620985672464
2023-12-06 15:45:01.137024,26.446358923760773,-6.939598841548595,8.061178681683819,3.979498917650413
2023-12-06 15:45:01.141331,-22.224440757115328,-7.372789552655596,12.91483577150223,-5.362334399777442
2023-12-06 15:45:01.149629,-61.546724292766164,-0.40094354989138126,7.295615051734985,-30.152176047487824
2023-12-06 15:45:01.153896,-33.85793801110093,1.4825927991000556,2.137367542698549,-20.468609639130992
2023-12-06 15:45:01.159952,24.839408888652763,-7.30341398065855,-4.580382174664345,2.0384263443426733
2023-12-06 15:45:01.160956,32.58895902858953,-9.158265456540342,-6.5845962184728535,1.0955916290734982
2023-12-06 15:45:01.167650,-22.508198395960488,-4.4101918281722465,-5.420741387072132,-8.445584819502473
2023-12-06 15:45:01.172952,-64.41473488716954,-1.8483255703928645,-6.1909712622276265,-20.109646109535007
2023-12-06 15:45:01.178193,-42.49392344118143,-2.16150325253862,-0.23371504882183025,-3.7315360914320377
2023-12-06 15:45:01.182462,13.153577340431411,-0.49569425126652045,0.2478376416512189,13.812237325380199
2023-12-06 15:45:01.188617,33.640439594367976,3.8324024451471588,-5.084753280831981,-3.7676734271037753
2023-12-06 15:45:01.191876,-5.615234222642505,0.743101234291192,2.3490943908914064,-10.574910811638567
2023-12-06 15:45:01.198288,-47.61687407582245,-2.177409130746181,6.805826527465766,-7.780984977818376
2023-12-06 15:45:01.203783,-33.930933120451,2.299389854382952,1.3197501170506827,-6.884361452375054
2023-12-06 15:45:01.212487,23.432024234155534,0.6131484073743728,3.307034979695863,7.520702196570877
2023-12-06 15:45:01.221779,49.16589213061185,-5.852797253048289,6.057730914071916,14.31887468025397
2023-12-06 15:45:01.222962,5.2697733618302935,-6.231943995911795,0.08836169867701364,2.256517645612485
2023-12-06 15:45:01.222962,-47.30708876790548,-1.666038355734963,-2.81388670522052,-15.514412114724411
2023-12-06 15:45:01.229020,-45.04844205691183,-1.2311079149036388,3.2081968598531283,-13.555243530805507
2023-12-06 15:45:01.241879,10.350894771331197,-5.931473563558375,0.9166468053238485,5.792864402481577
2023-12-06 15:45:01.245928,48.635357009257184,-2.7517177417974072,-12.761239192056726,14.242422892664521
2023-12-06 15:45:01.248454,11.64413417485877,2.9190079755747114,-11.755522736232315,5.649962359579458
2023-12-06 15:45:01.264507,-44.61855697851818,-2.313605807026595,2.5163575188566134,-16.56627905512645
2023-12-06 15:45:01.265512,-47.638771436097244,-6.662803570310902,6.512024808017717,-17.759360964312062
2023-12-06 15:45:01.266516,1.2380358100411213,-2.3723106774510097,1.1112205911329578,6.635177223312498
2023-12-06 15:45:01.271025,43.8497389817183,1.7597803689993847,-2.958869620744036,12.035711998910793
2023-12-06 15:45:01.281369,20.17742407605899,2.156072225172037,-0.5546540331970979,4.86279076495295
2023-12-06 15:45:01.294289,-34.28533101286682,1.1648483152361138,3.1831576433291566,-7.2290753868118856
2023-12-06 15:45:01.294289,-46.54715672745616,2.1755126144541896,-0.4560778354206406,-18.370277792261987
2023-12-06 15:45:01.295297,-1.8829978142859953,4.992319416664583,-5.299439348990381,-5.905551348878543
2023-12-06 15:45:01.296316,46.63447531230879,1.7186354543520417,-4.119996891932109,5.778535837044157
2023-12-06 15:45:01.305762,22.530917697564895,-9.087058337195542,-1.2006502857649364,-1.3600720447374435
2023-12-06 15:45:01.314175,-39.828430120212325,-11.511445256067072,-3.6976683864538074,-18.540763388890834
2023-12-06 15:45:01.319229,-52.97950929033088,-0.517747274819421,-9.46571096974913,-25.720858271910764
2023-12-06 15:45:01.329588,-11.117426076016745,4.210232080717784,-8.8172175944819,-5.099890918165891
2023-12-06 15:45:01.331902,42.73813987202611,-1.9051147463858338,-3.9926369788213822,12.469410114095604
2023-12-06 15:45:01.334260,43.505984960158884,-1.709576981376844,-2.6906976782933834,5.868875048141743
2023-12-06 15:45:01.337272,-7.499198427106617,5.8183620072480675,-0.8127302468174842,-8.822742891068668
2023-12-06 15:45:01.343611,-32.5530755118743,8.329197569780884,2.6999543681851885,-14.440977463699737
2023-12-06 15:45:01.362211,-5.205482363183113,8.246132010400782,-1.7476439107777446,-4.292464139249262
2023-12-06 15:45:01.363222,45.03046221808771,11.876882743715813,-8.78063276211683,8.069504672689796
2023-12-06 15:45:01.364230,50.40657449578322,10.961736146199705,-5.112262897611564,13.86989410688256
2023-12-06 15:45:01.365236,-12.417060918729648,4.3070250185376455,0.5422869025357187,3.318106788250221
2023-12-06 15:45:01.369430,-56.29417136411838,1.0475301382206657,3.8205306463692508,-14.576206315146683
2023-12-06 15:45:01.381613,-26.9960076565086,-0.08538617335613806,10.979854473560652,-5.41610355012137
2023-12-06 15:45:01.389447,29.65370104544826,-0.4497391189846146,10.319656923892333,13.903567179772493
2023-12-06 15:45:01.394519,37.35510039754135,-1.1311446452573444,-0.3572836305414237,15.469222604461741
2023-12-06 15:45:01.403140,-12.707445873846922,-3.1431404835971994,-7.588285389371296,5.02647343663246
2023-12-06 15:45:01.418155,-45.29072219144899,0.6762098379693212,-8.529294935506954,-8.081417192904647
2023-12-06 15:45:01.418155,-24.287154213360022,2.6759811039900447,-2.5059809570736165,-3.578533084415249
2023-12-06 15:45:01.418155,24.437468507687232,-3.5480496222990205,5.783927922687618,12.855679320443283
2023-12-06 15:45:01.439849,46.21487201053491,-3.6524180480630317,7.039174033325321,12.65787850449506
2023-12-06 15:45:01.440872,6.063005586434407,1.1673583042440197,2.009998524774944,-1.6046080747331377
2023-12-06 15:45:01.440872,-38.14864169808924,1.4780321615670282,-1.736038700763434,-11.496837293924395
2023-12-06 15:45:01.446997,-30.3805052567005,-0.7951900521593603,2.9757412252430555,-7.967276392559948
2023-12-06 15:45:01.453162,15.991905250794122,-2.491702901913166,6.915354721209333,6.492030617855205
2023-12-06 15:45:01.465018,47.435335886757386,0.9353596909658245,1.784868759024034,19.104459333416465
2023-12-06 15:45:01.467415,11.80202858278412,2.551989707098218,1.37346947401222,10.04818089068544
2023-12-06 15:45:01.474431,-40.08815224627522,-0.9166859105579613,3.6222492352464264,-9.461462059909957
2023-12-06 15:45:01.479293,-29.809397780606755,2.96746975600669,-2.926835664894887,-6.682065830076714
2023-12-06 15:45:01.482804,18.52712474033959,8.132947919347465,-8.418521572852708,6.141031819006405
2023-12-06 15:45:01.490251,41.587814765736894,5.062927766701178,-7.32661535396707,11.004160011012402
2023-12-06 15:45:01.495344,10.80138581211451,0.8897125931246013,-5.399466863445716,6.403543454314643
2023-12-06 15:45:01.510532,-36.33533703199318,-1.4384191901498777,-7.796778235681169,-10.547523222721598
2023-12-06 15:45:01.510532,-38.03331443944566,-2.7234877504905985,-11.05927340108325,-12.721706992212807
2023-12-06 15:45:01.511708,3.2435794187845897,-3.3553255250548015,-4.668073272515083,5.865988754422948
2023-12-06 15:45:01.515566,34.35188283050477,-2.740437210959646,5.509454637979533,16.916560081220304
2023-12-06 15:45:01.518792,19.58674937293808,-0.8437058371029059,7.826345470464384,12.908171766231824
2023-12-06 15:45:01.530233,-21.744654209527788,-1.5296475005126262,3.8315341222314805,-0.8913549598552156
2023-12-06 15:45:01.533386,-37.28483045130817,-2.966988841774491,2.333005681845121,-3.7232278039326605
2023-12-06 15:45:01.537091,-3.4508315478831704,-1.3427576788029203,7.13598009106777,9.005664111833411
2023-12-06 15:45:01.544483,32.853678209664515,0.9529151143337055,8.070623808428858,13.466597042236321
2023-12-06 15:45:01.550542,18.32626917004755,0.2806940739228025,5.908149515082589,9.674752769538912
2023-12-06 15:45:01.557680,-18.99061687959088,-2.494876745875175,6.3780359313281805,2.016817257051811
2023-12-06 15:45:01.578260,-31.43706870300714,-2.3310670079735223,-0.0749897322039079,-4.370851666290167
2023-12-06 15:45:01.579398,-7.937022576879099,0.62518820698595,-4.106806877085015,3.7406634759592206
2023-12-06 15:45:01.580640,28.143193699154622,1.5611427195395062,1.7646100914180516,12.25607760853492
2023-12-06 15:45:01.588900,24.16251660315604,0.23236036835463442,-1.0864387203738208,7.787937996490945
2023-12-06 15:45:01.598383,-13.167701588865832,-0.9758945387247128,-8.231561123512437,-1.9042178032896588
2023-12-06 15:45:01.602429,-26.1647415612537,-1.7007072731155484,-2.9254991947398037,-6.362117340592222
2023-12-06 15:45:01.607909,-3.70378749537165,-2.2261333247693664,6.503501879222853,0.6481725559753205
2023-12-06 15:45:01.614418,25.40115430494475,-1.2392907885125146,8.56145836435417,8.903396573860768
2023-12-06 15:45:01.617523,27.151764278488596,0.9734685297826391,5.9689705566084275,8.33953796323974
2023-12-06 15:45:01.623524,0.7564425562959416,1.281810590741359,3.2371086357946206,1.7260802476907504
2023-12-06 15:45:01.627527,-18.918616664158307,-0.9880558325610883,-0.9617093060397862,-4.336475958655403
2023-12-06 15:45:01.634863,-11.068968384957802,-3.0104817302711186,-4.751921879581104,-1.9741860238672098
2023-12-06 15:45:01.645694,12.886892300744613,-2.5195074008390854,-4.970498901088605,4.018523261906284
2023-12-06 15:45:01.658429,17.962801863920486,-1.425713988278755,-3.343138816551495,4.425055670989983
2023-12-06 15:45:01.659429,-4.260669147586205,-2.163197769242315,-1.0940950102073674,-0.3436025976357867
2023-12-06 15:45:01.660453,-21.19486458588005,-2.236041150857387,-1.0833516388469053,-5.741037212252581
2023-12-06 15:45:01.665766,-13.566746242402532,-0.6276235911876759,-3.133361339974927,-4.059342747161253
2023-12-06 15:45:01.671919,7.726405841459977,-0.6047059276923679,-3.198325746744155,2.683051325205906
2023-12-06 15:45:01.680091,14.7875483554194,-1.629790959148879,-3.747043986406183,5.040121049581281
2023-12-06 15:45:01.686592,-0.06617943811607829,-0.9671125689251142,-4.324129512751724,1.4973873278453977
2023-12-06 15:45:01.689922,-13.635900136675888,-0.23165513818549444,-0.9524956761036341,-4.318359987203624
2023-12-06 15:45:01.695317,-11.232071840472097,-0.677259239153457,2.201378485394588,-4.2273858442141
2023-12-06 15:45:01.700800,6.755741513387333,-0.19487563585347273,1.473746096092006,3.0813559613219104
2023-12-06 15:45:01.709867,18.984892689070254,0.429881655058947,0.19265107340417464,6.433761106184736
2023-12-06 15:45:01.716505,5.946261983212509,-0.795504036964447,1.2313644439593507,1.3541594357526174
2023-12-06 15:45:01.731462,-11.424836800272361,-1.7212769280841425,1.9565001524415955,-4.475901771385675
2023-12-06 15:45:01.739083,-10.965214882708015,-1.1000903035193534,0.8508664422986352,-3.792108563902279
2023-12-06 15:45:01.740098,4.567254378644408,-0.5252895750830876,1.2685428980939508,1.050477918380718
2023-12-06 15:45:01.741264,15.40154850603502,-0.35950091016787444,1.3852278754222294,3.6668298809345323
2023-12-06 15:45:01.745352,4.11710845848255,-0.5169394648113745,-0.986551558846706,1.2994531893806804
2023-12-06 15:45:01.754649,-11.314264476149432,-0.6836454150500821,-1.0594237357422873,-2.7719930635431607
2023-12-06 15:45:01.764266,-10.655512635349467,-0.5322765684570158,0.7213176727070493,-2.015716799115023
2023-12-06 15:45:01.768377,-1.1043718454870746,-1.158911403042252,0.7025313856229034,1.313460329855876
2023-12-06 15:45:01.773631,6.268902660611335,-1.7010263807879449,0.3718066852526676,2.4927392836176634
2023-12-06 15:45:01.779860,4.054825362601282,-0.8190875182331294,0.7026677393097431,2.433334361225902
2023-12-06 15:45:01.785003,-5.025645986563881,-0.38870566905120557,1.308721840560777,-0.19149332478979877
2023-12-06 15:45:01.792005,-8.498351068615419,-0.8248712359905924,1.758158883590827,-2.4734791035012065
2023-12-06 15:45:01.808397,-0.6415602308334547,-1.0539239102470734,1.6121041240406213,0.1347320635318024
2023-12-06 15:45:01.808397,9.04112885658619,-1.3298618030542513,1.4624315411887696,3.2363681120112897
2023-12-06 15:45:01.809399,6.806291335942542,-1.0338767850769204,1.1932678543184927,2.790708646103765
2023-12-06 15:45:01.814522,-2.6010114040431995,-0.31767755825127003,0.41161548647538077,-0.2637188024049834
2023-12-06 15:45:01.820127,-6.536476274790211,-0.3284188285413518,-0.6537418091329024,-2.543305477284306
2023-12-06 15:45:01.828709,-1.958155244852927,-0.3980983296007303,-0.912955334392477,-1.3970416331330449
2023-12-06 15:45:01.834232,6.528062978855925,0.2570600682248752,-0.3874851075103621,0.6001496885838495
2023-12-06 15:45:01.838555,6.489773985002229,1.0053160720759406,-1.2105164501103411,0.006966251945159398
2023-12-06 15:45:01.848257,-3.788111427740116,0.8777750150473149,-2.197983445630708,-2.6489128278595833
2023-12-06 15:45:01.855469,-9.61279581110419,0.29043600711523293,-1.6755195442676643,-3.7757224927536375
2023-12-06 15:45:01.862309,-3.2539859334429746,0.4471852901951706,-1.8402957576094954,-1.728436748507286
2023-12-06 15:45:01.866582,7.468921114874689,0.9681117408910382,-2.4675604715960766,0.8564092597922699
2023-12-06 15:45:01.884241,68.88767644737149,4.554159558949222,-12.781484780737122,21.54367513007472
2023-12-06 15:45:01.884241,11.214297237643699,1.8447543432387725,-7.490498415563378,3.6251338485450075
2023-12-06 15:45:01.885245,-25.4895759902881,-1.196652670434292,2.496096108805053,-8.11725502764226
2023-12-06 15:45:01.905423,-6.499634094266213,-2.1391442242311802,11.474604832372023,-2.6791130677595643
2023-12-06 15:45:01.905423,49.330064393309264,0.18392855130336602,9.286257806130594,14.588806222613606
2023-12-06 15:45:01.907473,56.2807076828013,1.674560049428501,1.8058436214678204,17.032162860652637
2023-12-06 15:45:01.910840,-9.796766575697387,-0.3224207254610247,0.10724566145985628,-3.2021277869416043
2023-12-06 15:45:01.917274,-51.16007750824064,-2.4534661522968806,4.6493594564771765,-16.06982164515786
2023-12-06 15:45:01.922697,-26.52508398689152,-1.9294442803895382,7.448051174620114,-8.574598167440898
2023-12-06 15:45:01.929288,38.95645221463092,0.1769563710713839,8.173956087543168,11.463593278892617
2023-12-06 15:45:01.934397,68.49137112733399,0.8774776555264007,9.263820922159729,20.412804720435528
2023-12-06 15:45:01.943383,12.901867847446276,0.22913723001753017,1.8193575513634315,3.70231380243898
2023-12-06 15:45:01.950728,-39.36007112410627,0.8879418690798502,-13.43371357479512,-11.67323766635744
2023-12-06 15:45:01.958387,-18.730092184013905,1.8974784917610013,-15.511037002558192,-5.294837972250718
2023-12-06 15:45:01.963252,47.49678638761968,2.7743548791497123,-6.133403682301617,14.564113492304449
2023-12-06 15:45:01.972037,70.71922175746504,3.7866854049453575,-8.191862133577668,21.657410839588177
2023-12-06 15:45:01.979367,17.917152016188695,2.4942504276033635,-12.149417496182794,5.69646049193732
2023-12-06 15:45:01.982537,-17.858228064749838,0.7396442155312171,-6.870000418184583,-5.278197233297223
2023-12-06 15:45:01.985625,-12.283576869625609,0.8430204043947049,-5.579280783803746,-3.5953679507187006
2023-12-06 15:45:01.994759,12.525854192783418,1.1221223101777718,-4.177184599024449,3.7638611990545114
2023-12-06 15:45:02.002517,42.270832749751094,1.3755650725516781,0.9363598380698869,12.560106112218211
2023-12-06 15:45:02.010045,21.50111659334731,0.9187247624774963,2.4255880241163896,6.364076340945938
2023-12-06 15:45:02.017263,-17.584325128280604,-0.3262450430502763,3.4171122535286225,-5.363335355922016
2023-12-06 15:45:02.021416,-25.34661194292434,-0.628363205215352,3.3096266864712813,-7.689471715247713
2023-12-06 15:45:02.041145,14.761121903362952,0.7512260436441859,1.520385503753012,4.3201465993341035
2023-12-06 15:45:02.042228,78.85253726856888,2.8882034258187983,0.7817481150854021,23.424052992220943
2023-12-06 15:45:02.044348,45.42703260401845,1.4725759414645496,3.4292052516876073,13.36147883588284
2023-12-06 15:45:02.048049,-42.91711753880278,-2.3820114058483295,8.45957390824652,-13.10011617925601
2023-12-06 15:45:02.055792,-38.995468102689216,-1.9203566518844868,5.441100955036267,-11.841855844233532
2023-12-06 15:45:02.075452,28.08453247148934,0.9157784418338009,2.355622659760741,8.136472596478514
2023-12-06 15:45:02.076483,71.24785990320355,1.7991925389342578,6.0144718902380765,20.71625604148807
2023-12-06 15:45:02.077868,40.091485861198066,1.7756147088229395,-2.5391141965779704,11.698926499289035
2023-12-06 15:45:02.082081,-23.37342489857331,0.521232184114528,-10.162869216169502,-6.769184168051516
2023-12-06 15:45:02.089330,-27.246733654553328,-1.2758575332025541,4.2075620640814835,-8.180420377975054
2023-12-06 15:45:02.102118,15.507978146508215,-0.6668584653703815,13.283026431039744,4.173207015338509
2023-12-06 15:45:02.107630,57.53886798890544,0.9398868419732603,8.561852740335002,16.368524471063555
2023-12-06 15:45:02.123248,59.84019520908111,0.7723474000979699,10.544706734708926,16.94184097266531
2023-12-06 15:45:02.124261,5.23166311781264,-0.32371116138399714,7.9789959627853,1.3045228076991808
2023-12-06 15:45:02.125345,-38.194150681600604,-0.8041991639406642,-3.8580904089693635,-11.054904691165735
2023-12-06 15:45:02.128734,-4.883852466479744,0.4228978804990643,-7.073922893801811,-1.4836469198011946
2023-12-06 15:45:02.138530,63.68567118766991,2.513934172176844,-4.296924376917645,18.065467070949232
2023-12-06 15:45:02.148009,66.9581585249149,1.9797100578360924,1.2881833733935706,18.834104041462528
2023-12-06 15:45:02.158206,-3.0517451391510453,-0.9011173448550053,8.467852160183474,-1.109955568831188
2023-12-06 15:45:02.168233,-55.50687618391116,-2.1566740871940677,5.521454927496191,-15.815008381705871
2023-12-06 15:45:02.176273,-24.828334269892792,-0.5154763227397929,0.7322902148089384,-7.038917494399586
2023-12-06 15:45:02.182285,50.41189967287608,1.728017802551618,1.4617269761924447,14.000041285366065
2023-12-06 15:45:02.186746,56.229057778541495,1.6800003838785753,0.49527158162397233,15.5029258021815
2023-12-06 15:45:02.193379,-2.7870926487233247,-0.054105110409075376,4.125139897155338,-0.8511637202439487
2023-12-06 15:45:02.212475,-34.19406857525571,-1.0483346846361736,7.352815888807107,-9.48343208359191
2023-12-06 15:45:02.213476,-21.945549349823388,-0.7516842166229304,0.7351509110496932,-6.170492896395374
2023-12-06 15:45:02.215475,30.09870179683434,0.7859931627824162,-0.4880612025100912,8.075009799994145
2023-12-06 15:45:02.221476,56.55004637991517,1.5658367086412643,4.753491906080458,15.307473905737105
2023-12-06 15:45:02.228837,4.052335183889901,-0.041777761868889124,2.6317212912232675,0.972976944741189
2023-12-06 15:45:02.234836,-40.878282992966454,-1.34564280177927,-0.9509658717887888,-11.19621108689476
2023-12-06 15:45:02.239837,-21.982103553460117,-0.4151061859274633,4.619302634724136,-5.912964090000788
2023-12-06 15:45:02.262027,39.88129580287371,1.6474611895211937,11.777474082261728,10.809157237818164
2023-12-06 15:45:02.263130,68.88001647815861,2.3963172473522825,7.756107775989922,18.407874710037518
2023-12-06 15:45:02.265188,7.945441452946836,0.35420280554920225,2.5019346990047104,2.056520683474573
2023-12-06 15:45:02.271487,-54.03449462889087,-1.783256635989592,7.435997470779414,-14.296314321881658
2023-12-06 15:45:02.280241,-36.28828632693751,-0.9302219523506323,10.920836363849197,-9.451533253238372
2023-12-06 15:45:02.299814,34.122250924717484,1.4855354336733202,6.69992090400407,9.006122075917707
2023-12-06 15:45:02.299814,59.638516204616714,1.417952197754759,0.9493001557289066,15.362349351401482
2023-12-06 15:45:02.302914,-3.5280635839632932,-1.0032778872154207,-0.3764628802779455,-1.1806071219214733
2023-12-06 15:45:02.309538,-48.84952668792863,-1.8811248992612315,1.2754547849656634,-12.738041238033139
2023-12-06 15:45:02.315537,-33.44067744212764,-1.2719592685599053,-0.6238642208493268,-8.726457309870241
2023-12-06 15:45:02.320290,2.4815155235811015,-0.4649928192359732,0.4790882508244192,0.45878146297615463
2023-12-06 15:45:02.329321,32.86030856736974,0.7909627487002548,8.088338730636616,8.354880906852038
2023-12-06 15:45:02.341446,5.129564864497401,0.8822119807794464,12.089578524369383,1.5330285163615955
2023-12-06 15:45:02.351832,-47.40858474461762,-0.9350287726950853,6.120119856275666,-11.815544425670856
2023-12-06 15:45:02.356151,-47.655979211155035,-2.003555119770787,-4.712563910005756,-12.166050057200748
2023-12-06 15:45:02.364169,4.492951569775825,-0.02314904720023509,-2.796630961147873,0.9767511639933478
2023-12-06 15:45:02.368551,50.192538440995854,1.8163116866075246,8.193445153570444,12.545066539872153
2023-12-06 15:45:02.376878,27.99384676444497,0.6273503517140956,7.624624326430529,6.923258082481855
2023-12-06 15:45:02.384888,-16.364828602123758,-0.40383243095112903,1.8461354594510568,-4.034795484729306
2023-12-06 15:45:02.392486,-21.901933591180793,-0.43425818508560854,-2.7663780480191136,-5.421304930234967
2023-12-06 15:45:02.399846,0.9580634398368812,-0.9207594056965847,-9.116185707803837,-0.12517250849336775
2023-12-06 15:45:02.404295,23.378366660325906,-1.407632366779905,-10.62954150382269,5.0958009103948525
2023-12-06 15:45:02.411257,-1.7296513987671844,-2.4278640290295574,-9.384432897649534,-0.9740868635311333
2023-12-06 15:45:02.418560,-43.57244904550572,-3.000534126901063,-8.234563581528926,-10.853409215289558
2023-12-06 15:45:02.426625,-42.79001632501215,-2.188165877978952,-6.394039436149419,-10.473162903952927
2023-12-06 15:45:02.433061,-15.632105943055189,-1.7450666931241712,-9.460226016337108,-4.09199524211317
2023-12-06 15:45:02.451763,20.021499420233926,-1.6938083834186077,-13.524582266992333,4.121273742869135
2023-12-06 15:45:02.451763,17.91333684968072,-1.3506642157003406,-8.67391281811057,3.75006892844094
2023-12-06 15:45:02.451763,-36.306607425185106,-1.6599726481828785,-0.08928530740235581,-8.581714625166073
2023-12-06 15:45:02.474339,-61.73944866678126,-1.818652298411728,3.2119331783494114,-14.303299729169584
2023-12-06 15:45:02.474339,-22.759653702318488,0.0017480317340180626,4.25373290553603,-5.1290658726495755
2023-12-06 15:45:02.476476,38.25359460807142,1.590715004742664,1.7371384571977173,8.84237875872309
2023-12-06 15:45:02.481105,50.65519067021246,1.024716848513399,-2.4474715105787976,11.443670739209029
2023-12-06 15:45:02.486674,-7.215294413617036,-0.3352153820593089,0.3359654432049233,-1.684674355858235
2023-12-06 15:45:02.493423,-62.92571659646946,-2.7716673944072094,-1.89043651825962,-14.427721187145785
2023-12-06 15:45:02.502449,-45.66777250019683,-3.0167807688518717,-6.296771763754296,-10.638331813482855
2023-12-06 15:45:02.512231,26.566307531812793,1.2310286688940522,1.9388523402500342,6.017867122448256
2023-12-06 15:45:02.520247,52.56362767961958,2.150985011071687,1.416631960562825,11.804892475534452
2023-12-06 15:45:02.525553,0.8817307825747979,-1.1722555341695977,-7.993413485509404,-0.12011262108773833
2023-12-06 15:45:02.532707,-47.8610185739282,-1.6691781620472987,-2.143465076098094,-10.700163822738366
2023-12-06 15:45:02.539327,-50.6501804054292,-0.7666264461776857,4.651335057394543,-11.030674125208286
2023-12-06 15:45:02.561680,-4.583566285025484,-0.37456138605437794,0.42072498461161945,-1.0486991297602872
2023-12-06 15:45:02.561680,44.524663960203455,0.923523421209296,-2.257259654555279,9.622251500292856
2023-12-06 15:45:02.564960,18.841783658142063,0.45858224272946685,-2.412441408432942,4.0137733562378335
2023-12-06 15:45:02.570621,-42.56132548174152,-2.553642660346986,-6.233142038446087,-9.510318878981897
2023-12-06 15:45:02.578316,-46.994619227825034,-3.211408915670861,-7.512911533586368,-10.503324701198204
2023-12-06 15:45:02.584933,11.070212368532726,0.005799925431990106,-1.3578871142743694,2.3028560735599775
2023-12-06 15:45:02.592993,58.1324079630493,2.0186719160823703,0.8527012907141065,12.491861957171325
2023-12-06 15:45:02.600120,30.70942730020157,0.8469774832886836,-1.5581077012636033,6.505446276935554
2023-12-06 15:45:02.607919,-41.068398168431436,-1.186643374689022,-0.1323220533498561,-8.76380499554895
2023-12-06 15:45:02.614721,-65.75793225674073,-1.6749261736871983,1.9089111524452547,-13.906988293870741
2023-12-06 15:45:02.622615,-3.619123746405659,1.2409108907541075,5.436213560641149,-0.5482371723753836
2023-12-06 15:45:02.643703,45.763156506084876,2.9095998185262415,6.800899510593846,9.917933062861978
2023-12-06 15:45:02.653911,0.7937328759251076,0.014776456389115837,1.0026874361530516,0.186771345414266
2023-12-06 15:45:02.654949,-53.639167938213006,-1.2481443959095304,1.48390872371722,-11.190055083336922
2023-12-06 15:45:02.657024,-64.4782319871491,1.1114644285283437,12.36453809015734,-12.983758443044922
2023-12-06 15:45:02.662138,-44.04946448133189,2.252222102071832,15.315855803180582,-8.579567197946858
2023-12-06 15:45:02.671473,6.3825314046415285,1.5604676961434727,6.616714664884467,1.5842022665850173
2023-12-06 15:45:02.680668,14.85544411887463,1.4010534827337655,4.475373537278093,3.261667987626921
2023-12-06 15:45:02.689443,-35.781258405039054,-1.3258771968617058,-0.3343012363986326,-7.426032584007882
2023-12-06 15:45:02.691593,-51.069167551041126,-5.844189132514823,-16.158261600935933,-11.204084573374738
2023-12-06 15:45:02.698056,5.326372746872635,-2.923997746155322,-12.393733906252923,0.6255491792271817
2023-12-06 15:45:02.704518,65.77683036613712,2.6894001808871417,1.5434379297614307,13.646526517035198
2023-12-06 15:45:02.712890,46.19180727127679,1.3649260815292845,-0.6863592944275957,9.499122765663035
2023-12-06 15:45:02.717952,-30.93967694837506,-0.858862906732597,0.46589659345367374,-6.316595194164368
2023-12-06 15:45:02.738616,-68.42582564818625,-0.917255067564763,4.682879191011352,-13.828115482985092
2023-12-06 15:45:02.738616,-21.59985395816279,-1.067000998101473,-1.526705204469108,-4.462931954805915
2023-12-06 15:45:02.740048,54.52137068576818,-0.07850767697046764,-6.759554138098815,10.913601232031265
2023-12-06 15:45:02.743597,47.41763541509635,-0.6274167429046134,-8.002684404507036,9.403870757809624
2023-12-06 15:45:02.750593,-31.794660157659937,-2.7654393805738966,-6.498584120885493,-6.731478535892094
2023-12-06 15:45:02.758868,-61.013628542956994,-2.182288802702709,-0.806859489831172,-12.470752400243809
2023-12-06 15:45:02.767243,-9.36998726481381,-0.11867028023222105,0.47549257886242896,-1.8654890655193357
2023-12-06 15:45:02.776523,57.0231506761916,0.717459941295565,-4.07338564403366,11.504645708301013
2023-12-06 15:45:02.780655,58.73353968686355,-1.0694470203413728,-7.2460000506164945,12.698812200484507
2023-12-06 15:45:02.789969,1.157769904356456,-4.335023881792783,-12.27775516204159,-0.19267282921929804
2023-12-06 15:45:02.798229,-25.990303065955377,-5.768289037337871,-14.341197994935156,-6.2160473703624595
2023-12-06 15:45:02.804750,-7.749204376872655,-1.564554988132303,-2.8699239616493237,1.345612145931706
2023-12-06 15:45:02.824253,30.716296612938674,2.0127288679758966,5.3824448279746555,12.564627837082975
2023-12-06 15:45:02.834533,47.16608571369663,1.2860952690606067,2.2370050999754985,15.637291866858611
2023-12-06 15:45:02.834533,2.1111254308040714,-0.37223876319673327,0.9779708953153893,6.389677107295896
2023-12-06 15:45:02.836560,-47.37204910580265,-2.5284343859035885,-1.1523355578674557,-3.85202206139673
2023-12-06 15:45:02.839707,-22.885089685441045,-2.9592686553115297,-4.1829952016569925,0.8538266435239872
2023-12-06 15:45:02.846965,50.67998429840458,-0.2702697672706936,-2.968572447920108,14.928155650833988
2023-12-06 15:45:02.857773,64.44638638697322,-0.409460785804911,-4.766879858324665,16.61588047985298
2023-12-06 15:45:02.865006,0.1898614310626675,-3.357844601212613,-7.1916027925954245,4.954845267105203
2023-12-06 15:45:02.873661,-36.76893388792544,-3.4458724104249665,-4.688460096196114,-2.6830254919458514
2023-12-06 15:45:02.879771,-12.24156970056889,-3.007743088081216,-6.14720192755556,0.012951460007211875
2023-12-06 15:45:02.887427,32.924126504818624,-3.0163750717581985,-9.077978517072571,9.735111036643364
2023-12-06 15:45:02.892543,67.28373683871524,0.2316639900690114,-2.5866000892931007,18.21131849152198
2023-12-06 15:45:02.902555,52.889302829211125,0.5805848702907069,-1.765549259707452,13.369555241793051
2023-12-06 15:45:02.908902,-8.95564184826689,-4.310681589240855,-10.156647120548147,-0.48500658862324414
2023-12-06 15:45:02.915037,-34.11919404851494,-3.041767205902637,-3.046760573926864,-0.5095798854673006
2023-12-06 15:45:02.920630,29.659202815935235,3.1884329857620353,9.055423804526129,15.903085729476112
2023-12-06 15:45:02.927921,83.30940432509347,4.244994666654004,6.936761311227984,24.118998475859623
2023-12-06 15:45:02.935462,47.382774377930176,1.559063109463163,2.183758377369299,15.643606882910117
2023-12-06 15:45:02.938532,-19.34604305583183,-2.415857769474349,-2.613376928692081,3.1076936580833476
2023-12-06 15:45:02.947851,-47.773318417619045,-4.76682612124528,-5.039867627805987,-0.337130592529421
2023-12-06 15:45:02.954953,-2.738726418865724,-2.25387547926175,-1.7123766528730235,9.585193564368824
2023-12-06 15:45:02.962170,47.986818199115525,0.22491938434759487,0.4245560596854407,18.776050954770113
2023-12-06 15:45:02.968763,14.677816836012934,0.6912664760961408,4.576056708236276,15.30539004193089
2023-12-06 15:45:02.974097,-40.58914062588582,0.33218988500126573,7.521420180511811,6.159141769497165
2023-12-06 15:45:02.994862,-54.39278361119492,-1.2466401946932533,4.649023430136939,2.9342446749653317
2023-12-06 15:45:02.995950,-16.091992274120578,-3.1756205054924536,-2.557322012494944,8.401849079924082
2023-12-06 15:45:02.999139,43.203735505131554,-5.545736036099286,-12.643397500467742,14.335574397666615
2023-12-06 15:45:03.020544,26.91308017422709,-5.315409503793322,-10.470719533077144,13.167361284611152
2023-12-06 15:45:03.021988,-30.8316834446807,-2.598774421455624,-1.513584589334133,3.9021939470243225
2023-12-06 15:45:03.023479,-40.73880441955654,-3.0864784345408665,-3.2874284373790332,-2.1058502402949304
2023-12-06 15:45:03.029127,-14.17357877846766,-5.369077190497713,-7.9123584278972565,5.8271166120206646
2023-12-06 15:45:03.037648,33.38145906569165,-5.353926178010487,-10.18243543341783,14.237450038797322
2023-12-06 15:45:03.047281,45.140170181027145,-3.910317206685637,-9.457884686190951,11.554588979541604
2023-12-06 15:45:03.052796,-15.90310488450246,-5.518560814907653,-8.998281139320092,1.3982941645593956
2023-12-06 15:45:03.064166,-57.572097632708015,-6.96644146066608,-8.817755007597697,-3.9974596452447533
2023-12-06 15:45:03.072539,-12.711904617356906,-0.4707445747245626,1.835097719799611,8.533362802119882
2023-12-06 15:45:03.093842,58.95023319494942,3.8841384253320634,6.722975724928815,23.256025473607323
2023-12-06 15:45:03.093842,64.01356064340827,1.1551347334008337,1.6598442316810262,23.790108577640687
2023-12-06 15:45:03.094891,7.065875676790391,3.186485561712034,8.63790011727915,17.16492723234312
2023-12-06 15:45:03.098529,-37.97174089907925,3.2635060820429365,10.524584037049562,8.49957223296214
2023-12-06 15:45:03.107414,-23.861356171549275,-3.4851836938224436,-2.7752278106160495,7.636091938006746
2023-12-06 15:45:03.114516,39.25760610727162,-2.9734984969354072,-4.866592523905524,17.60123286877415
2023-12-06 15:45:03.121344,55.82968927455601,-0.3216675243236759,-0.8724940271760765,20.67812830235233
2023-12-06 15:45:03.128736,-8.904508582433705,-5.2552611281972155,-7.018824674449386,7.31337959502379
2023-12-06 15:45:03.138353,-56.54359649583733,-6.3996357847279794,-6.686802863359821,0.3882244102148687
2023-12-06 15:45:03.144636,-34.85828549793928,-0.9736790077702275,4.999247697657665,21.158148866299925
2023-12-06 15:45:03.151873,23.94450166623539,2.092312598242764,8.902627488279686,37.12534966189425
2023-12-06 15:45:03.158055,48.34629907209393,1.6729193879543673,4.431977960023452,27.906112992234274
2023-12-06 15:45:03.183446,1.3084432376768753,-0.5192158672556745,2.3112436844679705,19.393370868501773
2023-12-06 15:45:03.183446,-44.632918723097625,0.11510598015409977,4.7321436990642685,12.455175159186114
2023-12-06 15:45:03.183446,-23.873175855398866,5.40066162341335,10.231344335034738,10.147425042169246
2023-12-06 15:45:03.189129,36.30070371366463,6.059844227442951,9.086836568829344,20.0099142189907
2023-12-06 15:45:03.195991,52.78860723278475,0.8282221985665146,1.6060003529086826,23.128613469413658
2023-12-06 15:45:03.224179,-3.6040799406359074,-2.1533837286361948,-0.4716425982787483,16.339336283289104
2023-12-06 15:45:03.224179,-54.278587720060166,-1.9906958513034119,-0.9709934529813167,-1.3184402318380748
2023-12-06 15:45:03.227708,-45.145160637987786,0.18398146011271416,-0.3127452277296163,-9.05062284307259
2023-12-06 15:45:03.233573,6.1334225191892155,0.7763956924014244,1.5755169554014006,13.318784213935936
2023-12-06 15:45:03.242289,42.69995256601564,-1.8543102370184026,-2.0763650750179745,22.632014234527745
2023-12-06 15:45:03.251587,15.52530955855809,-0.9689653970112173,-1.0019881159598032,13.419380147456506
2023-12-06 15:45:03.260559,-33.094117221969064,-0.4186329221554441,0.3696804380787051,0.4982155593573861
2023-12-06 15:45:03.280628,-39.5955280822501,-2.411235417681135,-5.203299076365085,-20.437965016719634
2023-12-06 15:45:03.280628,7.913197260575277,1.32009149763069,-0.38328350070054856,-3.8828831712454646
2023-12-06 15:45:03.281633,53.87749423359954,4.23475979605232,6.544866813754354,29.920622045556037
2023-12-06 15:45:03.287731,19.60663266004309,2.7286422569498825,4.942721634060283,23.34628508438083
2023-12-06 15:45:03.292976,-52.34411383205529,2.330487795853886,5.634984694820019,12.186644086368583
2023-12-06 15:45:03.303421,-66.80279432076594,2.352413318547022,6.93605901835832,16.075371762113235
2023-12-06 15:45:03.315832,-14.23001656749091,6.479039695183972,10.240421532279454,23.628004387454837
2023-12-06 15:45:03.322138,41.058674840010546,7.717635545038314,10.637402423193368,33.88825158255533
2023-12-06 15:45:03.328399,25.55574725155012,0.8516185347756311,2.3049368700191044,24.94418654606829
2023-12-06 15:45:03.331455,-35.80089539854574,1.722112969552557,3.3849271806774532,8.134448161457916
2023-12-06 15:45:03.342260,-63.51906793398343,6.165445013331182,10.083260749980056,13.531742118720286
2023-12-06 15:45:03.348956,-26.295646998295183,2.936664104085358,6.177105540209603,23.32193149181572
2023-12-06 15:45:03.358762,38.50935844391967,3.4243157113333687,3.843973874622452,21.407072501141645
2023-12-06 15:45:03.366655,36.26870239155745,8.09980865371317,8.942584032428533,23.605608200013048
2023-12-06 15:45:03.373038,-32.89301021057814,7.192613482412476,9.97569460848871,21.938166547158968
2023-12-06 15:45:03.380644,-67.37879630259845,3.6843298764614234,5.903922465999017,8.477083175140487
2023-12-06 15:45:03.387182,-30.986745647465852,1.7015499442466464,2.5890001616081926,8.707780085802339
2023-12-06 15:45:03.396332,32.708654755985854,-0.4131144504828747,-0.9718215948512748,12.360947742558004
2023-12-06 15:45:03.403170,44.95793980890089,-3.315361810605153,-4.753957678289125,4.968695167456241
2023-12-06 15:45:03.426226,-12.198527249080794,-4.374386819129774,-3.760669833919843,9.756805707977481
2023-12-06 15:45:03.427414,-59.86899940479232,-1.3958356951134125,0.30558972245752597,9.355744037285547
2023-12-06 15:45:03.428460,-42.53287195215701,0.4293094906159638,0.26370657182386664,-4.825344582337137
2023-12-06 15:45:03.434138,15.676386139647608,-3.9720326271987294,-3.3514761076190602,13.871281727906764
2023-12-06 15:45:03.442729,35.67496109105484,-3.856735884909281,-0.6270175006536161,47.310883487719664
2023-12-06 15:45:03.467984,-14.760201296764903,6.248915431762272,8.164073190297009,31.866647831039053
2023-12-06 15:45:03.467984,-68.48045755096602,9.23389977957329,8.98602108610693,-2.418628577730593
2023-12-06 15:45:03.468992,-54.20322239018313,3.168081465414034,3.569432068085624,1.8288367465370536
2023-12-06 15:45:03.472285,21.088466194697205,3.440423939486662,3.13138963740303,12.240421579794328
2023-12-06 15:45:03.479420,53.881107190941535,5.74986992192998,3.3664468979772386,-0.7385921051166148
2023-12-06 15:45:03.487610,-3.5643210197660053,4.8669958624264815,2.351488702859395,-15.719360488754468
2023-12-06 15:45:03.498020,-60.39300802466527,5.201464327070147,3.3930742891654044,-20.747800617392567
2023-12-06 15:45:03.506526,-56.30089951995447,2.052213758933045,1.5793315335367888,-6.993358299851123
2023-12-06 15:45:03.512160,0.4973841742237905,0.9993308761849046,0.5141403039887873,5.268804720391389
2023-12-06 15:45:03.521421,44.32356434865062,6.446778531403436,4.701501154654458,7.177914781774418
2023-12-06 15:45:03.528103,1.5510887241464177,4.152179469556477,4.776020690476911,24.062691721434366
2023-12-06 15:45:03.534509,-55.893539801537074,0.5454295881218624,2.1934614311166993,16.236517897877953
2023-12-06 15:45:03.560626,-45.140166852321414,2.9931766603577894,1.6431191089767283,-18.775066586529203
2023-12-06 15:45:03.561646,3.7119578861014406,-0.08400713392735812,-1.2828007739950427,-15.176412205551184
2023-12-06 15:45:03.564867,41.38211760059381,2.391350280337914,1.6525118468682716,3.9391248851514695
2023-12-06 15:45:03.569689,12.229294859946567,9.98469093110735,7.290114891389354,-8.773971222969466
2023-12-06 15:45:03.575560,-63.735035949704056,3.1454284431883504,1.2549857657895849,-33.6868388297467
2023-12-06 15:45:03.582966,-75.88566957760379,-5.030915208453165,-5.097951183635052,-36.89035334789264
2023-12-06 15:45:03.590263,-7.002016850154187,-3.8477738006284334,-4.441829402208622,-28.081275673017966
2023-12-06 15:45:03.599811,41.22607686600862,1.658831369903294,-1.2173896452256119,-37.59187727358477
2023-12-06 15:45:03.608357,6.713475139853573,8.219762999090186,3.4845832862190345,-52.64006821299678
2023-12-06 15:45:03.634553,-54.984517484968976,4.980071697585872,1.662232393001962,-54.289383587990294
2023-12-06 15:45:03.634553,-66.67903724627323,-0.3890060811534879,-2.3632170823863623,-56.95782018050425
2023-12-06 15:45:03.636684,-3.965257631764249,3.346396090261675,-0.6349962546287294,-65.23527142206576
2023-12-06 15:45:03.659967,80.33168823824028,8.630187375021366,3.8138955416276112,-40.617416309076496
2023-12-06 15:45:03.661110,64.71990328343955,10.861975129708533,7.2515847888933,-11.101703731416237
2023-12-06 15:45:03.662136,-34.097856832744256,6.706551322583965,2.7710642252148645,-53.1943271289342
2023-12-06 15:45:03.666157,-62.68695239804429,1.56862386248182,-2.32771813458669,-81.37814599972168
2023-12-06 15:45:03.673508,-7.736396597566098,-0.3521620558572368,-1.9653657180302992,-40.65674800546796
2023-12-06 15:45:03.686542,39.387762678107556,-4.931838617010412,-4.286779073050208,-15.053572462529548
2023-12-06 15:45:03.695254,32.69381366764846,-6.255006287190285,-3.9470855964089213,8.546722973000596
2023-12-06 15:45:03.701957,-24.19525324198119,-4.911129551372596,-1.8532817346308719,18.526690615609994
2023-12-06 15:45:03.711167,-64.96993422987408,-4.459334714475412,-2.7880215036466223,-13.723445251523264
2023-12-06 15:45:03.718165,-30.7309600211293,-1.1382408494752236,-0.6225298829580447,-10.37243158542989
2023-12-06 15:45:03.723444,40.63311344668334,-1.4163672806832124,-0.17124927031777332,14.183977952633574
2023-12-06 15:45:03.734719,55.79935176181069,0.4290789102241831,0.5363302799885225,1.3501691036449757
2023-12-06 15:45:03.760789,-11.797443724126765,6.131659354221479,3.530253565454003,-32.09242028450137
2023-12-06 15:45:03.761795,-70.57842586453798,-2.102824218902431,-3.723372779100425,-63.651803665672404
2023-12-06 15:45:03.763838,-38.564276439425605,-10.026973858535355,-10.069026602110748,-68.42114518771741
2023-12-06 15:45:03.765886,37.49916971969779,0.8453834371394938,-0.9642907047964246,-33.95116583755038
2023-12-06 15:45:03.774064,51.19282042592728,8.294093069686662,6.840333015500366,-7.286478092523536
2023-12-06 15:45:03.780523,-9.734874447880586,2.1964932387387988,1.499641935027383,-40.692691128762974
2023-12-06 15:45:03.787680,-60.238161459567294,-0.032446501459487145,-2.437393857372759,-93.01641806061463
2023-12-06 15:45:03.802948,-36.92575855829396,5.005837091618669,0.9907292774962978,-80.04392831864855
2023-12-06 15:45:03.814965,29.307758877256905,2.2897658013472393,-0.1354753336680175,-50.7149383246376
2023-12-06 15:45:03.820531,58.2932479912628,-3.275071056926891,-2.849725234720891,-36.13343631692163
2023-12-06 15:45:03.829428,9.142351104321385,2.8549885773992054,2.1095675479250158,-35.26095828818093
2023-12-06 15:45:03.852908,-60.94427316097646,5.381768881933071,2.1647695930214246,-75.95652716230627
2023-12-06 15:45:03.854226,-56.17870801543655,-0.34842448796884207,-3.3511698250139985,-101.19030457595326
2023-12-06 15:45:03.855228,21.158304718102922,-0.007640736160468894,-3.7405961649742108,-91.51633991183003
2023-12-06 15:45:03.861606,60.325811120582806,-1.9207967516943396,-5.808773777294361,-96.42303979419465
2023-12-06 15:45:03.868906,11.300272964229482,-2.6986275711004066,-6.038039736638902,-105.09093927233388
2023-12-06 15:45:03.879922,-52.79444196806735,2.154617438529868,-0.8953105261799762,-86.81641752745024
2023-12-06 15:45:03.887976,-52.33232802280251,-3.3168758810561436,-2.5247130381045984,-43.63121339862661
2023-12-06 15:45:03.892636,12.80330389698886,-4.730169987835498,-4.109066594783349,-34.61923274556989
2023-12-06 15:45:03.900438,55.453566046493144,5.646264566691176,0.9842796957257599,-61.56197719281589
2023-12-06 15:45:03.907311,17.84129777576751,5.601579019744302,1.381462125594009,-64.11381796370829
2023-12-06 15:45:03.917793,-40.71253475490113,3.1490846110756627,-0.006813869882364806,-72.02465682002254
2023-12-06 15:45:03.931381,-47.6539038149318,7.7428878747712435,2.299724589753426,-87.62184174068356
2023-12-06 15:45:03.937470,7.635474246942322,6.559801069496315,1.5758559460442876,-73.78476521337085
2023-12-06 15:45:03.960638,68.19160038407604,4.381272595136063,-0.2801073993581486,-67.23201763048861
2023-12-06 15:45:03.961812,52.63922737753124,5.819013169228236,-1.2893508826466547,-92.5306990095519
2023-12-06 15:45:03.963148,-25.105442775563866,1.9961440504774375,-5.4433334396552775,-118.01015227855976
2023-12-06 15:45:03.967401,-60.203935593504035,-4.111722859517939,-8.234917566067514,-100.82572940470223
2023-12-06 15:45:03.973883,-2.9061936763346545,-4.482285481110025,-6.664551083398267,-65.616807901081
2023-12-06 15:45:03.980983,57.7766882601025,-0.7617799338131535,-3.584720279814095,-57.19139444864871
2023-12-06 15:45:03.989981,27.61352029410031,2.420956179341667,-0.01979227839638433,-56.915687670661235
2023-12-06 15:45:03.998751,-39.86598926412132,4.73212342645022,2.8432207777244,-51.20098342698937
2023-12-06 15:45:04.006069,-55.31448392190102,4.5397409236066615,3.8354428193033194,-24.653313879387504
2023-12-06 15:45:04.014542,-6.214181828730606,2.732142713998174,3.346948195040151,12.270556417340181
2023-12-06 15:45:04.022605,58.99426666832973,6.613629456321712,4.1727264959601165,19.62983978567195
2023-12-06 15:45:04.027000,53.60474627626735,7.515220746852525,3.2482656419195286,15.522220259409464
2023-12-06 15:45:04.058464,-23.88611077667166,-1.6441046424073662,-2.975691068406589,-7.273146922305523
2023-12-06 15:45:04.067809,-65.62908749057925,-4.285362765796983,-6.4970707992449475,-55.63023821406878
2023-12-06 15:45:04.070195,-19.054306748392857,-0.29551425892884314,-5.853411241512355,-73.45919276791102
2023-12-06 15:45:04.072207,51.96294844741844,0.7800261828984933,-4.106486488880864,-60.57357277759227
2023-12-06 15:45:04.077786,57.53931224805529,1.4843052509362678,-1.980285029773128,-56.69767746077852
2023-12-06 15:45:04.082847,1.8467768843739998,-3.771074081834017,-5.868574765437143,-71.87505699597943
2023-12-06 15:45:04.096329,-31.881047046409453,-6.887308462481469,-8.028399426614746,-88.87228278163862
2023-12-06 15:45:04.101640,-4.647989212729301,3.0919678877251933,-1.953546290869145,-96.09388263338587
2023-12-06 15:45:04.105696,47.39041275509616,8.581194483722708,-0.5894241536469008,-103.17351013771952
2023-12-06 15:45:04.110860,54.13548255475059,6.819197404251821,-1.0792318634291684,-97.04551529593112
2023-12-06 15:45:04.126128,-4.971612450035725,6.989885744387702,0.23706595227580882,-105.23104442641008
2023-12-06 15:45:04.137615,-58.08494274463417,1.9843417920679776,-6.794813839727162,-139.13849456381345
2023-12-06 15:45:04.158443,-39.670620541100284,-0.21789023445976047,-8.660991971605855,-118.74797249767545
2023-12-06 15:45:04.159459,18.825767280207035,5.072111147117009,-0.5849645824969268,-78.27615357201992
2023-12-06 15:45:04.161469,33.55723638417408,4.145669645374521,-1.8681508799117912,-76.81225940409321
2023-12-06 15:45:04.163619,-14.667158258245863,1.7692591281785448,-4.05166088305469,-56.52647344415303
2023-12-06 15:45:04.172917,-66.65629284528742,-1.8050434084968958,-3.400900704499785,-44.004352805402505
2023-12-06 15:45:04.182049,-61.26800471273345,-7.987771820470652,-9.3156870468207,-56.7393832161009
2023-12-06 15:45:04.194681,6.77457293160987,-1.5741567812169124,-5.157347906451592,-23.82950331410987
2023-12-06 15:45:04.199970,51.817785667462005,1.2846552415223083,1.4461544662444614,16.740693776144525
2023-12-06 15:45:04.206307,9.952661378629957,-7.711899183138591,-5.272932140470913,1.1366015502663949
2023-12-06 15:45:04.213017,-55.0094829415573,-4.981957004925171,-7.191419332997656,-27.317940630524152
2023-12-06 15:45:04.219338,-52.05665669852597,-0.9665723924025533,-4.915609401846529,-7.276227587752522
2023-12-06 15:45:04.229720,21.293051584219253,-3.1482952862098013,-4.324941672057047,41.92083112429807
2023-12-06 15:45:04.257580,60.07026684721775,-2.010593136390094,-2.1437040411855506,59.41672986985697
2023-12-06 15:45:04.257580,3.604549357190723,-6.166937256727963,-4.9430490804214,42.03710126560369
2023-12-06 15:45:04.259592,-63.192163704285875,-7.207975733030038,-3.8161110270893377,21.90915593850675
2023-12-06 15:45:04.284388,-63.63691635015711,-4.306532824548999,-0.7544844306808202,26.749793158364923
2023-12-06 15:45:04.284388,-1.0879469355241418,-10.174758194692863,-6.3506094732492615,46.21755617185591
2023-12-06 15:45:04.286651,55.87726849373689,-11.441028215580731,-8.488846581524273,45.30466869178086
2023-12-06 15:45:04.288835,28.851794923598646,-8.57797380064332,-7.724021556559771,40.20139672548802
2023-12-06 15:45:04.295278,-38.64626711701094,-6.721376067770124,-5.776299337076208,28.421644548088736
2023-12-06 15:45:04.300723,-52.80405938119614,1.7747285032165476,2.8513976505466556,14.743272065815262
2023-12-06 15:45:04.314032,4.5617655423575405,4.718512049565843,8.2011928312186,42.38043560593464
2023-12-06 15:45:04.324841,67.01752016618265,2.82580825601485,7.251009729618878,53.49356888140159
2023-12-06 15:45:04.330559,50.287968856212636,5.7013116261279855,2.204367762829518,18.16913745856034
2023-12-06 15:45:04.361452,-17.313203680432665,1.750448236974683,-2.6496980837187465,7.371882210651024
2023-12-06 15:45:04.362522,-46.53205688824981,-6.174921786169326,-1.6270984871173932,23.67056111774897
2023-12-06 15:45:04.362522,-8.844949619911118,-6.2678159510958835,-0.7938637935373499,40.648004904069964
2023-12-06 15:45:04.366730,48.55473377121185,-3.5085336509550604,-0.40085755422191416,48.094291819634925
2023-12-06 15:45:04.374955,39.58793329143993,-1.440048111789616,0.15657490321650225,27.166339759124952
2023-12-06 15:45:04.384577,-27.578018071392144,3.611965262862335,1.547150496822692,-11.267974337743563
2023-12-06 15:45:04.397978,-56.266128193302556,4.870984938097895,5.9098123306997055,-28.32631466329956
2023-12-06 15:45:04.406031,-12.622730716464423,-4.7293786217132565,0.011312229060348405,-9.425585622581925
2023-12-06 15:45:04.416962,47.123007578151785,-10.486767181362376,-10.145115263076786,1.6943917192069329
2023-12-06 15:45:04.429907,48.15823504694605,-4.239467277791367,-4.805860272202436,-7.313394659982981
2023-12-06 15:45:04.435477,-9.481940603114065,-0.004770810864853685,4.492906269940675,-5.424708487660358
2023-12-06 15:45:04.443636,-57.107357871139044,-2.456886814380983,4.621000521652522,4.890818073812429
2023-12-06 15:45:04.452485,-36.90311526144981,-2.5041882614019957,4.747227586962802,30.99879162264277
2023-12-06 15:45:04.459669,33.660436716380126,2.61375222999082,7.855747749858476,64.2141301114908
2023-12-06 15:45:04.466911,54.52733432420487,4.134482518377072,4.078743310737229,67.53180637437238
2023-12-06 15:45:04.476288,-3.1792817893916094,1.4221218034929184,-1.3553190528633368,48.8850208490041
2023-12-06 15:45:04.485301,-52.24623070345804,2.941682986303794,1.1065774066911482,36.98210121372361
2023-12-06 15:45:04.514550,-29.46610602502218,4.682227160146748,0.055950125337452694,49.88268325603135
2023-12-06 15:45:04.514550,41.565532420289394,2.177738809563459,-4.168365437670995,76.45591023014086
2023-12-06 15:45:04.516579,66.05169155563678,0.4580071428849201,0.658576652813909,88.8398994266661
2023-12-06 15:45:04.521340,6.363590874419157,5.133150639958427,5.080246399727949,78.45778074628154
2023-12-06 15:45:04.529146,-53.505471504229284,12.21845231692316,1.5938468706811149,57.132168631952645
2023-12-06 15:45:04.538392,-43.03293490501179,8.327151215624031,-0.8852790043120766,57.69855712082721
2023-12-06 15:45:04.547659,19.081979924942182,0.6142023490812529,-1.5931723272230323,77.14095159319464
2023-12-06 15:45:04.576700,50.33928494346411,2.6862485413841264,-5.361615037491177,85.66443884009247
2023-12-06 15:45:04.576700,11.275326461926538,3.943730517644973,-5.062460947054386,84.4685745968955
2023-12-06 15:45:04.580050,-39.54974256056405,1.9096392853484012,2.483529458282978,78.25027878262713
2023-12-06 15:45:04.585098,-45.386950987747376,3.876739600767138,5.028470018072932,81.74619173179114
2023-12-06 15:45:04.591522,6.3170440678323745,2.1067100597152315,-0.21474171354859295,100.71263394870154
2023-12-06 15:45:04.599262,58.94908312708452,-3.4798873405634483,0.4784119564778726,122.87687644234826
2023-12-06 15:45:04.606143,30.368413794650554,-2.208104804263571,7.200929037345591,135.84597139179218
2023-12-06 15:45:04.616576,-42.684110300021366,2.2839978762667514,3.193378807476085,117.2793872509441
2023-12-06 15:45:04.626297,-58.623408782155735,0.8568438812245176,-2.883865864718739,107.03593924874403
2023-12-06 15:45:04.635735,3.8603024004195214,-1.7384008176790955,2.3103535487754594,138.81662907262796
2023-12-06 15:45:04.645943,60.233614392526405,0.29485277960527523,-2.099785937875427,158.4171010674335
2023-12-06 15:45:04.653558,29.453770656326235,0.19172238299557062,-11.992047759956833,150.48050187688148
2023-12-06 15:45:04.681431,-41.183225243584594,-3.1735159390154637,-4.417916293106734,137.2787178348356
2023-12-06 15:45:04.682464,-56.681138841817074,-3.500734363081403,3.8982212742352824,132.97035475604335
2023-12-06 15:45:04.684477,0.9029547107136527,-1.8555816652771038,2.839781975628101,149.0909163675632
2023-12-06 15:45:04.689732,58.15894064820614,0.7363061760750367,2.050357924174984,164.6138690281472
2023-12-06 15:45:04.695774,34.92362245399286,1.5289306345439988,1.909660355966578,163.1698644041125
2023-12-06 15:45:04.705777,-30.83798185583627,0.3926622644622289,2.1879671708265365,147.15791486707099
2023-12-06 15:45:04.715658,-46.44300415038856,3.897601897112211,-2.4628355852539885,136.39860539757385
2023-12-06 15:45:04.743832,6.5213243905896725,4.959340124391624,-7.001711505458296,147.8167595530629
2023-12-06 15:45:04.743832,65.62254877455443,1.1035439128586813,-1.3202085643442907,168.040621949839
2023-12-06 15:45:04.746119,57.27437481318331,0.5802092153958897,2.0354797460228675,179.50473274358126
2023-12-06 15:45:04.748125,-4.922803893291673,-2.8389934987478025,0.5749197723731109,157.1200717371131
2023-12-06 15:45:04.756335,-43.97791677309067,-5.782576622808837,1.5919520733334833,128.39062524543067
2023-12-06 15:45:04.789683,-10.15777051333584,0.783956839318058,-1.3305522004891546,137.67729615670532
2023-12-06 15:45:04.789683,59.20114062677567,3.735708958236257,-4.507810689143198,149.87651876584397
2023-12-06 15:45:04.793502,60.156269732938696,-0.3623265887433638,-4.44355893882566,149.8406227661521
2023-12-06 15:45:04.798686,-12.625529776325582,0.17611128581145588,-6.189484125848018,136.44995778807112
2023-12-06 15:45:04.806085,-59.26147011208962,1.4062236185902406,-0.8497764233188031,113.70048955892305
2023-12-06 15:45:04.816353,-28.881482877091063,0.03684208053040183,10.254582491063179,129.5744718011165
2023-12-06 15:45:04.826873,40.73252432509694,4.233976759716641,10.649834486751299,156.80588562644442
2023-12-06 15:45:04.833541,55.88481930671976,6.325668650373097,7.478024934202614,152.0378075734679
2023-12-06 15:45:04.841847,-9.042559702795419,-0.1965517853300329,8.209190657908213,129.01051537400932
2023-12-06 15:45:04.849455,-59.96423780302054,-2.3985570778485914,1.1172122154057824,99.63801850648015
2023-12-06 15:45:04.861779,-27.103759925261397,-1.7940796202068106,-4.174994900620435,98.76262578240744
2023-12-06 15:45:04.869495,50.35093049305498,-3.5862959372296226,0.36418785732559833,128.74158670508118
2023-12-06 15:45:04.899642,70.56537153258037,-3.072193482147172,0.41252204969737344,137.47843691710045
2023-12-06 15:45:04.900640,4.456674407526304,-6.4208260847132825,0.8679662496760299,112.93411115513332
2023-12-06 15:45:04.903641,-53.585574630911935,-10.304066397103378,1.3449000062422163,75.67863753192643
2023-12-06 15:45:04.907953,-29.417087572678028,-5.773312234040206,-4.520183332776246,80.12943810418342
2023-12-06 15:45:04.913321,40.408338318403736,0.6749685465659789,-0.7249384693497932,102.38545985255138
2023-12-06 15:45:04.920762,62.18281835846092,8.400840419022158,6.874887687102649,93.35269367565607
2023-12-06 15:45:04.930179,9.49547293056817,15.356200463687236,5.098278818578015,68.93451854763782
2023-12-06 15:45:04.940905,-45.51125162754897,13.641976098810662,2.6604484177128174,51.34291531557969
2023-12-06 15:45:04.949909,-38.57612401077743,7.024160262417448,1.8845156644633811,64.95617372238732
2023-12-06 15:45:04.980785,28.771565264157616,4.76002421510157,4.535126299597574,100.99694459066819
2023-12-06 15:45:04.981987,69.25385918324166,4.112164643227302,8.999720305667559,115.1115683073456
2023-12-06 15:45:04.981987,15.795429427780691,-2.8661910593880098,6.352035695170505,89.97845347878665
