Timestamp,TP9,AF7,AF8,TP10
2023-12-07 14:08:39.041456,45.3056975266651,-1.060419279623091,-0.9319553284692798,-19.099193961158583
2023-12-07 14:08:39.105024,83.21177566359083,0.1045814613939745,-3.871991510668499,-12.4079406141034
2023-12-07 14:08:39.167756,59.295539277971365,-0.5773432498504836,-5.471800113193159,8.924168996093604
2023-12-07 14:08:39.212443,13.921144828145552,-2.5307080166579725,0.3424998978654306,0.5373784787028029
2023-12-07 14:08:39.229446,12.96197560823449,-1.464116509730378,-1.5723138056224588,0.1453748666383016
2023-12-07 14:08:39.372517,15.2243740194453,0.7768375827626972,-3.627759662152053,7.351219141121722
2023-12-07 14:08:39.402823,6.809973437028639,-2.490394752938364,0.7004710495521745,5.049812560316102
2023-12-07 14:08:39.594715,11.479271425394792,-8.161042544895535,-0.3003806015210657,15.20143247241171
2023-12-07 14:08:39.650277,-34.86321672909671,-2.7694536890683765,0.8662832542823501,2.531807957158569
2023-12-07 14:08:39.973414,-19.50039751487004,0.6746008791029736,-2.009868540838612,3.7620664470592335
2023-12-07 14:08:40.187807,68.27650866336404,-0.3025141118378384,-0.7366010465762807,14.622219540191033
2023-12-07 14:08:40.226373,15.630340253999345,-1.7150443509578837,1.107966473100397,10.769360338955204
2023-12-07 14:08:40.277758,-101.28444595557222,-3.3106085248781096,4.74006260154911,-1.207788775900268
2023-12-07 14:08:40.307310,-96.76800928679413,0.5695920761613601,0.2229684352421681,2.1149841606462383
2023-12-07 14:08:40.327310,-34.55862661708359,2.439346424195637,-1.8237811542655165,8.438844929216673
2023-12-07 14:08:40.337319,3.295338165983829,-2.368079539694886,3.451535237756069,8.600748087593606
2023-12-07 14:08:40.354365,-27.926532442955768,-4.893033468714417,0.99969310074327,4.899404115474745
2023-12-07 14:08:40.461285,-82.50135747060007,-2.5752446605179347,-4.377745480108461,2.5974575445194343
2023-12-07 14:08:40.605245,-68.19666421856583,1.2655955151529803,-4.007648015127251,3.5170675451230347
2023-12-07 14:08:40.624236,-68.9690054843521,1.329748852507191,-3.259281877850281,0.8797416337269005
2023-12-07 14:08:40.645497,-58.67837913847776,-2.007859441899304,-4.395823813084339,4.146778266122182
2023-12-07 14:08:40.702086,-3.1091865963676635,-2.064604513598871,-4.190423437124582,12.291741136494046
2023-12-07 14:08:40.715097,5.952522014884179,0.4195362475904435,-7.186847928486614,12.982144827070012
2023-12-07 14:08:41.095923,98.37497581042918,7.051337120544264,-2.7197653933517243,2.327264305747362
2023-12-07 14:08:41.111105,30.549857068736053,2.094640098762074,-6.142551446924059,5.103486351082146
2023-12-07 14:08:41.125649,11.178814314914868,-0.7220068365356542,0.4866791396236144,1.037187542389148
2023-12-07 14:08:41.144142,19.923999194093,2.429530041569353,2.818126779474476,-3.308434209646206
2023-12-07 14:08:41.161596,7.271133587370196,1.0531793556557747,-0.8245909323985766,-3.459623184046348
2023-12-07 14:08:41.175139,8.985672161278107,-0.0364899460550143,2.5028883103840265,-1.3715115572380496
2023-12-07 14:08:41.228190,52.14316678648309,4.425015776815651,2.42368396380985,3.869994110202164
2023-12-07 14:08:41.349483,57.67943726631859,0.8146562023700507,0.5218199285015291,3.5099916982651744
2023-12-07 14:08:41.418120,49.115557578597766,-2.422947790347167,1.821488200535158,-0.0844472012409306
2023-12-07 14:08:41.479726,49.46366014708646,1.434870191736951,1.980831771303501,2.881806314478526
2023-12-07 14:08:41.501426,-13.388891472726463,-0.7049549835724519,3.704352376733964,1.2449349681691384
2023-12-07 14:08:41.750517,-66.8098187754033,-1.5013123119811371,4.285049883337599,-7.6974408055099
2023-12-07 14:08:41.796898,-63.45737374809279,1.0176191356263036,2.7770071340107645,-10.437347852458409
2023-12-07 14:08:41.848351,-57.343079988029295,-0.7605288493775249,3.7755456895854382,-7.41921030604425
2023-12-07 14:08:41.870565,-38.41456858376056,0.4498967340164407,4.562944486819885,-4.360153565794034
2023-12-07 14:08:41.921003,-38.39954507651071,0.5361862415608254,3.564828874017137,-4.18798511789133
2023-12-07 14:08:41.972747,-46.95600872709668,-2.1974302852894647,3.650804488950062,-6.836700216157566
2023-12-07 14:08:42.049824,-27.46490397457336,0.0360064542872989,2.8648354000038045,-6.222768950261823
2023-12-07 14:08:42.061961,-54.34666150892678,-0.9945308464383338,-0.1521854114676426,-4.721193612565375
2023-12-07 14:08:42.280340,-89.62281934055864,-3.602322090502017,-0.5357716654204346,-5.894848718554725
2023-12-07 14:08:42.336573,-65.8646517988097,-0.4058742462602389,0.3574930996005074,-5.353073074537965
2023-12-07 14:08:42.431022,-53.02001357200029,-0.2064862908018021,-0.4113055031818089,-4.399792122382161
2023-12-07 14:08:42.465921,-49.74289368190534,-1.5402322039800591,0.8136174943772518,-3.0735028466950576
2023-12-07 14:08:42.508009,-25.26653235184528,0.4210400500784944,1.4697437614903095,1.3752061906753053
2023-12-07 14:08:42.515015,-14.853947405268483,1.3927757350184211,-0.1594034591200863,3.7967140609533
2023-12-07 14:08:42.530938,-16.605061806760723,2.116674735038454,-0.1674937254120343,3.580700559169539
2023-12-07 14:08:42.554208,-12.951614749922069,2.3057626953062726,-0.8482187098471449,3.8872089608286537
2023-12-07 14:08:42.590683,-9.2104876726346,1.6937032108680434,-1.7597357074690454,3.3085649075521784
2023-12-07 14:08:42.688163,-8.62840198677373,1.789419479603266,0.206349270188699,3.862718407402444
2023-12-07 14:08:42.714644,-1.6553354223293373,1.5852203991790732,0.6309219405419028,3.476812928786087
2023-12-07 14:08:42.832966,5.046231024954336,1.701636192408993,-1.2173901667100695,0.3636741674210396
2023-12-07 14:08:42.940251,-6.06409439153784,0.5062999029725609,-1.1614986487544925,2.2482540587747355
2023-12-07 14:08:43.147995,-17.77574753688953,-1.1853946793428394,-0.5612027222176245,3.855355289221533
2023-12-07 14:08:43.167761,-25.70269885199753,-0.3255963159456302,-0.3538942508679498,-1.998630649456168
2023-12-07 14:08:43.203625,-33.421126924952254,0.1902440811836148,1.0641888677593618,-4.401083015394835
2023-12-07 14:08:43.258510,-21.94350691681731,0.2239839050868301,1.139930863456592,-2.158586029722562
2023-12-07 14:08:43.302538,-9.533927527506316,1.1837562200794705,-0.6069304025719544,-2.7620596559077293
2023-12-07 14:08:43.452501,-12.855440144857925,1.0188976214543628,-0.6992929680006529,-3.257503214403736
2023-12-07 14:08:43.467695,-15.077991785271392,-0.353935922804729,-0.4966599636571492,-3.133410911908262
2023-12-07 14:08:43.609011,-12.248827476224507,-0.95923735570618,-1.2960995134663555,-3.09099655481024
2023-12-07 14:08:43.618282,-5.935195899531157,0.2308667915597916,-1.1084635993055183,-1.4011609085852017
2023-12-07 14:08:43.624372,-8.650042015056938,0.9053982089304048,-1.0222467600305774,-1.6599867566617117
2023-12-07 14:08:43.690772,-90.88635660457535,0.8869702579480968,-0.2884281454474114,-6.7434329941381455
2023-12-07 14:08:43.758632,80.38793756133634,0.7410048427774406,-4.68119271094628,7.543093463518473
2023-12-07 14:08:43.780275,110.45288275634717,1.352928342709098,-0.715223837381153,10.786616292856632
2023-12-07 14:08:43.827486,66.46553176254135,0.8986069412924889,-4.636278194734114,6.767125544402593
2023-12-07 14:08:43.985976,57.61194519455599,0.4811753746908577,-2.957321423000057,5.19461561027829
2023-12-07 14:08:44.029934,59.32619539831386,3.132471924525669,3.915329585820296,3.2304667737431965
2023-12-07 14:08:44.153213,100.9268573300927,1.6824462876337525,-4.200087902008831,7.357673231336247
2023-12-07 14:08:44.182359,84.81019242502231,-3.5680584887514906,1.044900122662078,9.202982996905709
2023-12-07 14:08:44.257319,84.83760753049847,1.0035825938259697,7.244272069206503,7.469828750326378
2023-12-07 14:08:44.310260,75.31230640541264,0.7829866339694643,4.579184959891891,6.530923805707056
2023-12-07 14:08:44.513189,-67.32287984570692,4.680561703691537,5.183983545179656,-10.259474465887871
2023-12-07 14:08:44.529767,-109.84541785909704,3.2520956696878045,2.006971605346467,-11.7978642018623
2023-12-07 14:08:44.724486,-38.71603816602898,-0.570752033608903,1.356400254736141,-4.045104725069786
2023-12-07 14:08:44.923658,20.66150567930791,-1.3212684721332812,9.052132080395406,1.2543759329285598
2023-12-07 14:08:44.965483,59.11491261617366,4.52978922437711,5.563089164918788,1.2509501797225908
2023-12-07 14:08:45.232085,43.43723615454023,0.1607331185318472,4.829010509937145,4.573246451688563
2023-12-07 14:08:45.248222,-24.99572095970251,-3.1005592617266955,6.288074747541432,0.7929556562247817
2023-12-07 14:08:45.374135,-106.2588326344233,-9.016369430107606,8.313702655562038,-4.659150262065311
2023-12-07 14:08:45.457784,10.220384658270191,-3.484350068558991,4.574839993971255,3.5709178866321376
2023-12-07 14:08:45.577480,36.98626302211855,0.0782356449491606,-3.3015517556980827,2.2370020193904643
2023-12-07 14:08:45.610772,28.690367521867422,1.982938500261844,0.0669977707916396,0.2030926111207834
2023-12-07 14:08:45.644692,26.6368709869666,-1.2132919557093964,-3.3659297876194585,3.2038867454286755
2023-12-07 14:08:45.660459,20.75082080966397,-4.187051825731886,-5.838422673038292,4.948640565701307
2023-12-07 14:08:45.715829,-5.7597291868919775,-0.2216446845214577,3.053835561733212,0.8242561835415169
2023-12-07 14:08:45.765431,2.271930724361129,-2.1703349307513595,-1.4277371490375843,2.3519353166778414
2023-12-07 14:08:45.772622,70.53905172159934,-6.258942111877268,-4.4704524240723575,10.610814308228749
2023-12-07 14:08:45.804492,103.54372491164528,-0.5667156856132655,5.023080800034503,12.154428739886654
2023-12-07 14:08:45.844937,75.60926360751093,2.8838799268102946,0.4555606218939575,7.113370511716069
2023-12-07 14:08:45.889394,37.1576190123872,-1.7644898791388302,-4.316834162851132,5.621227972470887
2023-12-07 14:08:46.176916,-18.676182579916457,-2.0619934009481,-4.27242491748367,1.2892478025676484
2023-12-07 14:08:46.492426,-56.898928864744505,-0.62589555429945,-9.417125269683726,-4.894001490385144
2023-12-07 14:08:46.506555,-88.19508285928981,1.0463381147604576,-3.0204998070896103,-6.944716696573446
2023-12-07 14:08:46.527594,-92.65253944603296,-4.839054512131844,-3.205810252047572,-4.280553061652848
2023-12-07 14:08:46.593734,-85.84674014454251,-4.31738125257952,2.363951551215153,-4.873065814825908
2023-12-07 14:08:46.606990,-51.25316856365568,-0.0459822476624321,3.769476467322772,-0.0494526034436423
2023-12-07 14:08:46.631079,-48.60316438384572,-3.895014777511346,-3.1366814926659776,1.2526734275125806
2023-12-07 14:08:46.728783,-77.87092355553601,-0.280054205289802,-2.7543575090216104,-6.079678488798112
2023-12-07 14:08:46.738038,-30.89848540311277,0.31303693780707,2.463834379294789,-2.2918407794499656
2023-12-07 14:08:46.827017,74.45521247667087,-7.616762053607351,2.097178040779603,8.021510529200212
2023-12-07 14:08:46.859910,92.14958588791852,-2.165503470457901,-3.9493176339593816,4.397606920517183
2023-12-07 14:08:46.888839,93.8982615696702,0.5152702867775153,-1.0924191894795643,4.553867463670604
2023-12-07 14:08:47.351392,94.84528234449368,-8.821791280844927,5.953746783359837,7.384798708898246
2023-12-07 14:08:47.377774,96.3308462590657,-1.964590906320404,-5.407274247781117,10.133640090971747
2023-12-07 14:08:47.395929,103.75184136014862,-0.9493259001523,-3.172457573190288,13.044058709845906
2023-12-07 14:08:47.406953,41.9162138633784,0.854654265459767,-3.333087577145096,3.1892764327992067
2023-12-07 14:08:47.466631,41.3780181715156,-0.6661379728211543,0.0573208474777043,3.4417032403324
2023-12-07 14:08:47.711574,103.22137196077756,4.7966156603166406,-0.7974919770960877,7.317037697362833
2023-12-07 14:08:47.717607,47.99603833964865,2.881499899890481,-4.084813503147017,-2.004974675658843
2023-12-07 14:08:47.725157,59.92739205712586,1.1158691108104408,-2.0613556944029883,-1.4861821512206157
2023-12-07 14:08:47.735730,63.085993281993154,3.119139685911245,-4.058578764899636,0.5352903406761561
2023-12-07 14:08:47.740812,32.26956212973296,-4.225569088009124,-2.1746694611374178,-5.628142915734204
2023-12-07 14:08:47.760594,39.17081600006909,0.7989674717693444,0.5398605761484744,-6.814642374940113
2023-12-07 14:08:48.084623,43.27230939333007,7.937045004163598,1.8841557815767933,2.37184836157579
2023-12-07 14:08:48.138711,43.22822645967316,4.990885538732055,0.3166902576939099,3.5709394744487515
2023-12-07 14:08:48.162206,57.00394654169358,-3.020941748234671,5.9136192919877,5.123906807348159
2023-12-07 14:08:48.182343,53.44100253330332,-2.4064070098039485,6.893896444572171,4.51261577752181
2023-12-07 14:08:48.204308,41.40078055035171,-2.9806357569748703,0.4280818867153265,2.3446831487664963
2023-12-07 14:08:48.247385,18.53164311958781,-3.8505477766442064,-3.8223036570436415,-2.2444741053036803
2023-12-07 14:08:48.348423,16.474207207951785,-2.516708187064076,-1.1087861757115902,-1.179083840940577
2023-12-07 14:08:48.467556,60.83115675085418,-4.788756866879499,-0.277099856954859,13.070239295687704
2023-12-07 14:08:48.508385,46.42829512298733,-8.362412577003782,-6.951552710299798,11.97681038470468
2023-12-07 14:08:48.725564,21.776859899178497,-1.3919349458962065,-8.223426007116489,6.998895698094964
2023-12-07 14:08:48.757659,15.926026239828213,-0.0217443801306492,-3.764609156938564,3.314850043168632
2023-12-07 14:08:48.854709,24.78807636069708,-1.149193794475808,-0.6157459839244772,4.416926033777751
2023-12-07 14:08:48.955273,1.5076798624208354,-0.0225125069310732,1.0245948896854218,-2.418336767397409
2023-12-07 14:08:48.980446,-30.473080201453083,-0.597175071616606,0.5926008701908874,-12.019262933748175
2023-12-07 14:08:49.058353,19.71623527683873,-1.2373210174837517,-0.3700779386726495,5.261385919927928
2023-12-07 14:08:49.080480,36.27045827539002,0.6459631393791272,2.7051032308270853,11.06792958664292
2023-12-07 14:08:49.098719,11.290788493657333,1.2056770989698875,6.39578368205123,0.2111679574780866
2023-12-07 14:08:49.191205,9.234683423649724,1.989535187820466,-0.677075354676087,0.3785822535417302
2023-12-07 14:08:49.396148,3.5198179210112857,0.3730905195842434,-6.100994288984535,1.4405176859113062
2023-12-07 14:08:49.423911,16.387439272364052,-4.123732182563039,-0.8169160700909784,5.500689805948101
2023-12-07 14:08:49.514452,13.65976695109322,-3.299606464173307,-2.3389325862471027,5.27317620131008
2023-12-07 14:08:49.538739,-1.5085464727265547,-3.4537205432406486,-5.063635935036231,-1.4538751055507215
2023-12-07 14:08:49.554252,20.200841180136912,-5.519780636354077,-0.7894966584836537,4.155231688083974
2023-12-07 14:08:49.602610,26.573317389232763,-0.7398549130380179,1.719659407495984,8.1787877213523
2023-12-07 14:08:49.627544,25.245095895867173,1.1755720467783768,5.327774666770865,5.494942281725678
2023-12-07 14:08:49.643672,34.40158841952184,-2.088718448061868,5.369028034081666,8.846350998134763
2023-12-07 14:08:49.695746,21.11139845985045,-3.317698479450175,2.816753395838091,6.406665758790847
2023-12-07 14:08:49.782559,25.1378623287496,-1.364141050462626,4.815755853075911,7.439427704058265
2023-12-07 14:08:49.814054,39.145044654322646,3.2610851296397105,2.3366403063455303,17.918731498828464
2023-12-07 14:08:49.830573,21.41890563035515,0.9427588645522588,2.5285405149146936,9.581144399579784
2023-12-07 14:08:49.911209,23.09268227063504,-1.2048744265736628,7.95890667143628,4.938456312696455
2023-12-07 14:08:49.934897,38.20815412809294,3.3114984861704864,5.895341743794351,16.30283828065239
2023-12-07 14:08:49.965692,17.387052137075727,-1.404622093379297,6.3417171380246495,3.6906024337382366
2023-12-07 14:08:49.993436,15.375954942633182,-6.132736279291311,8.572668912251654,-2.427634124801455
2023-12-07 14:08:50.029286,33.3910293853556,0.2293607753445228,3.615738690271188,13.787345163253766
2023-12-07 14:08:50.095552,17.717355715850584,5.467684807872161,5.731714030737189,8.244604726926376
2023-12-07 14:08:50.135336,13.77764840066066,2.160516263701066,8.658853236160198,1.8701316722431376
2023-12-07 14:08:50.186517,-0.2364769632279016,-3.654045426918909,0.9163039521926932,-3.654037294659293
2023-12-07 14:08:50.312458,-51.36691707459156,1.486622289722512,-2.30241395454312,-23.54795337291372
2023-12-07 14:08:50.388799,-43.68011580345736,7.108239323150388,-1.524683123424219,-16.245643826281494
2023-12-07 14:08:50.634549,-8.922997926261903,1.55845477110937,-0.9846459558780232,-2.6916858447388217
2023-12-07 14:08:50.654111,-12.133376029610908,-3.763727647122384,1.0611665708669584,-10.137287653345089
2023-12-07 14:08:50.682702,-14.982383425281016,-4.603980661765291,-3.9299662738566727,-8.662094143003415
2023-12-07 14:08:50.839722,-16.51725772087926,2.1525548115366533,-2.6313069268723024,-3.6825171312898255
2023-12-07 14:08:50.888852,-12.38620698330297,6.384871053138183,5.610569183463395,-4.377307130905387
2023-12-07 14:08:50.918136,-21.880613223962698,-0.338905131833754,-2.469802731023629,-9.74861104725291
2023-12-07 14:08:51.151746,-33.109651691672106,6.843656654475443,-5.671424845889063,-6.531546406676108
2023-12-07 14:08:51.172207,-22.24591227416345,3.944790817356885,-2.7394598008931927,-5.881436351675106
2023-12-07 14:08:51.270651,-38.099320426695925,0.5359273135180285,-1.799316266337678,-17.591551263513104
2023-12-07 14:08:51.320244,-36.50342440728989,-1.0926553157319263,-1.4490978798052037,-18.739653612660373
2023-12-07 14:08:51.412788,-11.69910039418615,-2.859503996343586,-0.1862339448640395,-8.201336816715086
2023-12-07 14:08:51.512368,-8.648700055105587,-6.450817179327994,0.7943294930839182,-10.776504797986192
2023-12-07 14:08:51.716088,16.421776292918867,-4.084957002032501,-1.1890498236921192,6.699272001366011
2023-12-07 14:08:51.778089,-0.7691080742947244,6.156151471185958,-0.3354632699987994,9.34557238477828
2023-12-07 14:08:52.005064,-3.058761196219085,1.7751795221438098,-0.6573816436340125,1.7284904700130952
2023-12-07 14:08:52.023224,15.188814876633757,-2.9379857546244383,4.142771598564343,3.793809153151412
2023-12-07 14:08:52.043236,-7.994513017885429,6.312215445608717,4.70866617430831,0.631686201760597
2023-12-07 14:08:52.097256,-1.972632714633557,7.277876089617511,3.435389043096496,5.907643489516436
2023-12-07 14:08:52.376475,-7.445115117796695,2.968457429898543,-1.8671063428764936,2.940794211456869
2023-12-07 14:08:52.457421,-12.51384784515239,5.5340115168223125,-6.819702195981692,7.620205790862869
2023-12-07 14:08:52.473641,-4.159816758271409,1.0381628820783058,-6.458007303241627,7.753314025262497
2023-12-07 14:08:52.611104,-17.336720837182362,2.125334682942803,-4.4442417548304105,-0.6700901795807959
2023-12-07 14:08:52.655950,-23.45160103102909,2.006917792512455,-7.299017820129966,-3.378924647448501
2023-12-07 14:08:52.881321,-16.954337093137415,-2.1358409116981485,-2.98230907068087,-8.534365941843728
2023-12-07 14:08:52.890336,-11.226120274335956,-4.465729510551639,6.962728203842476,-16.606433715503048
2023-12-07 14:08:52.985161,-19.51020543041743,0.5943501946275158,-1.2987462868527333,-10.094423396152964
2023-12-07 14:08:53.016006,-14.05186423763949,6.057602695361378,1.2655712573425912,-2.837554247602001
2023-12-07 14:08:53.036020,14.639189061273932,-1.8333691705243584,8.984768897191431,0.870671652721798
2023-12-07 14:08:53.259164,-4.574782684702915,-1.9092466702833624,-5.6669442020978495,2.884176039807841
2023-12-07 14:08:53.273483,-21.83180192226418,5.700966591104623,-5.794257342690801,-0.1358563395958212
2023-12-07 14:08:53.312552,-22.68366896592484,-1.7594884441150722,-6.660727384207639,-9.884385843487648
2023-12-07 14:08:53.327680,-31.58712788970648,-0.2923720081127142,-2.29929837732144,-19.28535224931345
2023-12-07 14:08:53.340686,-3.2861116581528287,0.0796253014332626,0.6775130039605265,-1.30137452826318
2023-12-07 14:08:53.521190,-17.891474764573218,-2.05869951049843,2.2487463410074384,-12.24095723659728
2023-12-07 14:08:53.555196,-21.52634201034085,-1.7311742527180074,3.4639249597892428,-16.153582178804385
2023-12-07 14:08:53.628216,8.929744472937662,3.891088674109153,-2.453179064699043,16.425670596926928
2023-12-07 14:08:53.681561,15.353534748924318,-0.106672393745387,-0.2864512252096302,15.02464912022316
2023-12-07 14:08:53.694574,21.329999744903034,-2.3549582325474008,2.4925307716183767,13.3119088412675
2023-12-07 14:08:53.766141,-1.0002926305552535,-2.1049956910544934,-5.095770351893634,4.997832916013312
2023-12-07 14:08:53.777147,4.87689763095417,3.709731763165344,-1.842711252407007,14.86587156102017
2023-12-07 14:08:53.810910,-12.837858213647037,4.034255708491651,-0.4774130188653392,3.928205590941308
2023-12-07 14:08:53.826931,-5.3381093351769495,-1.44652488068042,-1.6235446831199996,6.871704072235805
2023-12-07 14:08:53.851941,29.6533337185573,-4.286282572060923,5.709814897636737,21.928810507269432
2023-12-07 14:08:53.883942,18.77431724471728,-4.051102864753384,8.458378346501826,9.808954298761098
2023-12-07 14:08:54.009059,7.992027821019594,-4.259778538552304,3.965299870300956,5.441879520212408
2023-12-07 14:08:54.224678,10.332592863105209,-2.211445714335252,-2.179386947150141,14.435404992473652
2023-12-07 14:08:54.251694,-7.192661160955279,0.9997906324043112,-1.7043599137772514,5.639524335710806
2023-12-07 14:08:54.295089,-12.41055960582288,5.237810468993554,6.372309613772001,0.248271444379235
2023-12-07 14:08:54.332632,-9.784119335897824,7.43258116774237,2.124391154829822,5.328930246369474
2023-12-07 14:08:54.458199,-16.539169165585843,-0.820162712531774,-6.477888546770099,-2.1875791054389904
2023-12-07 14:08:54.673322,-18.780002651807568,-2.6370257551454084,0.5249874585788687,-8.368832572272439
2023-12-07 14:08:54.897665,-16.853932535301414,2.7675088879689937,6.01974250652535,-6.298351728834065
2023-12-07 14:08:55.013770,-13.704362697387651,-4.3046729187461095,-0.2476898882431289,-11.072598047985776
2023-12-07 14:08:55.035765,-18.397700604637244,-4.067503342605856,-2.5115037224860903,-9.795682717073204
2023-12-07 14:08:55.120325,-27.941515692717616,5.021962608550081,-0.9813644017310872,-2.276533821339812
2023-12-07 14:08:55.125311,-16.035434517570977,0.9278451263898136,-3.67417505216449,1.4936703820779216
2023-12-07 14:08:55.144322,-6.478189056760297,-4.201133348304919,-3.846224857421929,0.3995278177007802
2023-12-07 14:08:55.149323,-26.464345362489897,-5.197520946438973,-1.5710736270109125,-13.894945666415264
2023-12-07 14:08:55.161329,-19.888402396928,-4.004329272924298,0.3377160429849886,-10.97739849284162
2023-12-07 14:08:55.205352,-2.9757422797040096,-0.8828220426365925,-1.034051361770278,-1.2863015181226556
2023-12-07 14:08:55.243881,-37.386739861556514,-4.298881889985744,-8.736301539033992,-23.062354538391425
2023-12-07 14:08:55.333558,-36.75115125318561,-3.042395318573013,-6.042834441686213,-15.365868546740234
2023-12-07 14:08:55.508840,-0.0462970187484888,-0.0725370646192716,-3.5200572047583703,10.698147096133072
2023-12-07 14:08:55.556044,-23.066778972120865,-2.895549720072473,-6.981580923750896,-7.304021247737435
2023-12-07 14:08:55.618373,5.981188575829588,-4.996353460459375,5.564636470345391,1.0744878024986853
2023-12-07 14:08:55.710403,-30.03529363298964,-7.665484567048654,-0.6727806902789256,-18.31159258131117
2023-12-07 14:08:55.841514,-42.24066450234187,1.9932876375674229,-0.0963974022433663,-13.223511647986022
2023-12-07 14:08:55.864511,-8.979624114826738,4.053557937874351,0.3755903252350036,7.002835128101625
2023-12-07 14:08:55.888509,-4.51635002251999,1.4930906421637125,-1.4061695042190236,13.125228548164912
2023-12-07 14:08:56.031616,-15.247762541937472,6.668594317745753,7.83482735218739,13.41063571717689
2023-12-07 14:08:56.083629,-46.30225374806244,7.528266927986503,5.942329392433641,-1.9756960611393035
2023-12-07 14:08:56.094640,-49.283985295928126,2.3121018185988493,-2.018349036738264,-5.697114019221219
2023-12-07 14:08:56.135233,-1.86210539099375,-0.4349096616072002,2.1837675997701607,14.357219675027444
2023-12-07 14:08:56.161664,-1.5811789861258618,5.014178707894709,5.982529000145636,18.857126149695056
2023-12-07 14:08:56.243719,-24.09453703660094,7.932038464749183,3.871256839560787,5.1072409834265775
2023-12-07 14:08:56.368886,-19.12871734877272,1.4136559167093985,2.5683988664526485,-6.849734665691004
2023-12-07 14:08:56.444991,-14.34262490298042,-2.863821960182992,5.221864794695411,-6.008420487443047
2023-12-07 14:08:56.462002,-9.13121504163074,-5.043785846787932,5.119212907177051,1.5166167400246422
2023-12-07 14:08:56.531192,-16.285515964819822,-4.152250355481229,0.8361836495042883,0.5931877615096413
2023-12-07 14:08:56.543192,-22.709689932767823,-1.7021820467933169,-0.1579956559574846,-3.962141107709367
2023-12-07 14:08:56.687101,-32.87267203773911,-2.954371854734425,-0.9778245085524692,-12.573497799587663
2023-12-07 14:08:56.727402,-62.975584778955245,0.8658442498518826,0.8869094265777294,-19.21240369644924
2023-12-07 14:08:56.779213,-59.83107069226536,2.1079695679562414,5.291981457386751,-15.19065536599144
2023-12-07 14:08:56.814106,-36.39935444338731,-2.733423227374787,1.5533238318433062,-13.84575356781989
2023-12-07 14:08:56.867135,-19.06980511060971,-2.311737898501104,0.1140216214636237,-5.8539748320544245
2023-12-07 14:08:57.160147,-6.9356638336444,-1.5119832344965425,5.741275605506231,7.240768850581208
2023-12-07 14:08:57.171161,-13.191236165578536,0.536581382305684,5.775217605756125,10.408053770737816
2023-12-07 14:08:57.268028,-3.9257763086861672,3.845529767877932,2.674817565794345,11.557627296984805
2023-12-07 14:08:57.318678,-17.11942381610374,2.4912531909515256,-3.8280259646454806,-7.360396696171185
2023-12-07 14:08:57.361678,-2.218635574021725,2.1769524036813594,-6.647895420495962,9.349474591125691
2023-12-07 14:08:57.370683,-36.53740697694421,8.653622810315072,-2.45305162738341,-5.922538489790841
2023-12-07 14:08:57.402695,-23.56466946610683,3.860623400567696,2.481570598855124,-5.132044009635499
2023-12-07 14:08:57.470242,-26.20999955591924,-2.7472498632896216,-3.510482166196613,-9.717054049327674
2023-12-07 14:08:57.716302,-46.101019840925375,-0.9120234563900412,-7.851131174158921,-12.24763353672434
2023-12-07 14:08:57.742316,-27.14774226184581,-0.6234600610657611,-0.0831402195185423,-5.990034654189555
2023-12-07 14:08:57.792743,-1.950914042394255,-4.431292407437283,1.948354535837571,-0.5704292202147827
2023-12-07 14:08:57.813282,18.03996383981283,-3.125244026694133,-0.6538692504090303,15.224958508377274
2023-12-07 14:08:57.822348,15.559229929339704,2.075564859308382,1.3631849843062889,19.45833306193968
2023-12-07 14:08:57.830827,-9.280834880716789,1.1055142816960115,2.6023770702049784,-0.4289191332450434
2023-12-07 14:08:57.856449,-8.776932082308521,1.3120516017700397,6.67450091921803,-15.45496668862639
2023-12-07 14:08:57.980681,-18.8337384952786,0.4423364190153133,5.524218680910371,-7.403258083969366
2023-12-07 14:08:58.250025,-40.42277610477967,-6.506802468650697,-5.7471863098346025,-14.654487737580164
2023-12-07 14:08:58.308519,-12.8105966152456,-7.160509196852354,-4.411344145163332,-3.791708061499019
2023-12-07 14:08:58.481327,14.853407757079324,-1.0800059536369513,8.46332919036451,8.80398257724935
2023-12-07 14:08:58.501637,5.33359362859614,4.60230954451962,2.4942288904417,3.0758423536523165
2023-12-07 14:08:58.516266,-0.7962247326738864,-2.5680936642508536,4.6229820228699054,0.3460321026498565
2023-12-07 14:08:58.529779,-3.1794430003503305,-3.6400942491731394,8.758859094049173,-3.3207328289647853
2023-12-07 14:08:58.637870,24.06484033791608,2.3348620125028945,3.806328383678266,13.376971472460143
2023-12-07 14:08:58.781586,22.63256767907293,3.916178836616836,5.372961173642253,22.13718668096447
2023-12-07 14:08:58.792641,20.42164783412823,-3.916021924365167,8.128543922352547,11.913637415782151
2023-12-07 14:08:58.807971,35.75923607675816,-6.735561305669826,2.335804248062177,4.892890467073953
2023-12-07 14:08:58.830598,14.518000249355737,-3.4226778221633327,0.3177215159688766,6.714102595198757
2023-12-07 14:08:58.841112,-3.5722949505521915,-2.4017210016369424,-0.1119998857400841,3.862113042299703
2023-12-07 14:08:58.964147,-5.33001956900454,-0.6123344653708662,-1.899634340148652,-11.343135755036052
2023-12-07 14:08:59.044589,6.03598418826485,-0.341715684539673,4.71542870967424,-18.10365739668967
2023-12-07 14:08:59.070824,38.84226403474315,-4.421869204949191,9.193933703949014,-8.639308328940203
2023-12-07 14:08:59.152582,22.3414334295569,-5.595156880869029,3.983203519687303,-8.45129869938661
2023-12-07 14:08:59.182313,3.144242305789849,-4.452369740295855,0.8894215185752526,-15.9232659645962
2023-12-07 14:08:59.230870,40.46994517383404,-4.495584523028468,0.9781384497250856,-7.68615165248939
2023-12-07 14:08:59.266878,43.953773396682365,1.6747504046479225,2.81777926457009,3.956461208544829
2023-12-07 14:08:59.501871,32.060520522316715,4.876345044513576,4.275391379161377,7.906126211423569
2023-12-07 14:08:59.580426,42.26677498578723,-1.159815877369323,1.5523792199513464,12.393445186684346
2023-12-07 14:08:59.600783,23.988883744711984,2.298650457476479,-1.010022087897004,10.182055550124264
2023-12-07 14:08:59.911860,27.20304545376027,6.283899074510048,6.368075236940044,21.67411266867286
2023-12-07 14:08:59.960390,31.358956470639832,-2.3514473235053512,-0.9843361782255418,12.14371891099401
2023-12-07 14:08:59.981394,33.116102645681714,-1.0354790253257953,-2.29816729317317,12.809492482006384
2023-12-07 14:09:00.159667,26.953750161456107,1.530170278988637,3.3479110102072296,6.335005294891117
2023-12-07 14:09:00.171345,26.6398731758368,2.71527030804509,0.8522723658587794,1.579182482069985
2023-12-07 14:09:00.188101,44.64070565433071,8.10591500031731,-0.2667646937202487,3.992180570447805
2023-12-07 14:09:00.229536,49.752851117346495,5.608924435297867,1.409615206394424,7.12680032593188
2023-12-07 14:09:00.320673,28.048923742256143,3.468433687595813,0.7012762484093606,10.67453034965567
2023-12-07 14:09:00.333910,19.2876891272168,1.5450370655225123,1.557854012545298,5.537285130117895
2023-12-07 14:09:00.342942,24.218021349434043,-5.421908106138922,4.217018089268732,7.324526745810766
2023-12-07 14:09:00.361170,36.91777884494395,-3.075346772205934,1.103854247801741,17.746579209637755
2023-12-07 14:09:00.383202,37.3937110912126,-1.2271520110980094,-2.813356011353525,2.689448672613289
2023-12-07 14:09:00.576485,8.350811292875681,-2.469814576626881,2.156896042113303,-16.78450259661935
2023-12-07 14:09:00.626061,12.922226262509552,-0.106909040442513,3.091311860600099,-8.69834362881539
2023-12-07 14:09:00.704107,33.26594549125605,-0.3265109494932134,1.6642470123512838,0.0589195704307768
2023-12-07 14:09:00.855906,12.236456183341025,4.242586368675246,4.643286089339019,-5.304316633561199
2023-12-07 14:09:00.994604,0.7515615598680231,5.438514657585808,0.8987211207605525,-7.510710712563641
2023-12-07 14:09:01.030011,10.405997403187886,-6.323917165143804,-2.604211627234913,-3.3760515873604504
2023-12-07 14:09:01.111301,17.840659049383934,-2.1068669077337643,-1.4185494262670846,10.34278010385261
2023-12-07 14:09:01.196611,32.93287124359989,3.4857825513655127,0.9260235200385568,14.80049329275136
2023-12-07 14:09:01.213272,30.192181552973523,-3.769504465135539,-2.8197702859358715,5.374669061149536
2023-12-07 14:09:01.265661,29.65597802251993,-8.987544841283471,-5.294720416323044,1.5898254808377583
2023-12-07 14:09:01.437555,42.1674890042251,-1.229573332690387,-1.2890384302597582,1.8780800509940665
2023-12-07 14:09:01.518232,42.71291692726254,4.979516044957013,0.3052397834024308,2.640762235558648
2023-12-07 14:09:01.533484,31.038020623661644,1.56810674940911,-0.7929243358182597,12.015805999217395
2023-12-07 14:09:01.549942,21.84384262795045,-3.09828581857164,-2.192033612033673,11.251250345462513
2023-12-07 14:09:01.598938,18.25740657485644,-3.29583445314034,0.6879552746587,6.467608381933382
2023-12-07 14:09:01.651990,13.15447839407018,0.822374104375269,4.880405818214414,12.439911805539168
2023-12-07 14:09:01.659070,-1.855328896396638,1.2330128242860634,2.575055007301813,5.108663115380537
2023-12-07 14:09:01.681303,-0.0421239144080006,-2.246194758647468,2.418720257446818,-10.090058341985507
2023-12-07 14:09:01.776424,42.87855582393692,4.232851365268871,6.372786150016857,4.235398283512646
2023-12-07 14:09:01.828609,29.142684756686894,1.490209053600981,-4.318029250525571,16.97501337055318
2023-12-07 14:09:01.839876,17.132697545948798,-3.0623745258258963,-7.89383546084055,8.912168209385225
2023-12-07 14:09:01.870902,31.892139051047124,1.0813067374046534,-7.05604222161751,10.26458717539022
2023-12-07 14:09:01.887143,14.057919841420585,1.0122466174659115,-2.7641599596064013,5.047575768521524
2023-12-07 14:09:02.009219,12.317125581505003,0.3340008415399411,-4.3335311186845,11.61852621052643
2023-12-07 14:09:02.099880,26.65052687030068,-3.754896780774561,-7.436662269456116,17.322954329952925
2023-12-07 14:09:02.145420,11.793526818003658,-0.7870897126874689,-2.4105791312921028,13.083154819723864
2023-12-07 14:09:02.381023,22.35503309483102,1.100442719647622,-2.925498272643039,-3.998474397492622
2023-12-07 14:09:02.403454,54.87548707347816,2.040948973496518,0.2290136896789204,15.658710956666653
2023-12-07 14:09:02.763298,48.04123153906754,2.6793082002175685,-2.000697029816398,25.96626014543644
2023-12-07 14:09:02.778295,13.22153618048704,0.0749035801808775,-3.333769598204766,-3.118394771436961
2023-12-07 14:09:02.878045,5.614033939014098,-2.0110769376914748,2.996888124431331,1.4513141750896918
2023-12-07 14:09:02.899493,-0.4086876483817053,-5.465147869900144,-1.395765176604836,6.481994139529918
2023-12-07 14:09:02.917537,4.864460190129671,-5.281704881715946,-4.780759743403677,-10.643219651617724
2023-12-07 14:09:02.936065,24.37617591870076,1.5278432182013533,1.6725026877707898,0.0544687027053436
2023-12-07 14:09:02.966809,29.12855417357107,2.006683348127587,-0.4820767000322479,22.49568663697348
2023-12-07 14:09:02.998188,24.81452275516279,-0.0206197449581982,-5.221083703948106,23.055378343204787
2023-12-07 14:09:03.090322,-3.961767187869706,0.9148969016027866,-1.4812857032934643,-3.770462704632034
2023-12-07 14:09:03.158866,-16.83804567813049,0.0136067834968815,4.789449241426224,-20.80030741413613
2023-12-07 14:09:03.232670,6.451757177598009,0.998235191824826,5.562242962410897,-11.181747003035488
2023-12-07 14:09:03.348090,0.7247496770935816,1.509577315316625,2.909232190538027,-19.98711088550178
2023-12-07 14:09:03.417690,-5.4950252654834975,0.1813271965419689,4.11082101310193,-32.885490731009455
2023-12-07 14:09:03.451207,9.78911231805172,0.3704248133175562,2.141437847919923,-15.384454977473442
2023-12-07 14:09:03.601000,3.406336977374894,0.4548893934771836,-2.843572552296961,-8.86016031318466
2023-12-07 14:09:03.682320,1.3143686668011587,-0.9857425058779098,-3.687679218866273,-26.65318857192502
2023-12-07 14:09:03.759084,6.300206546132759,-4.575097471052852,-5.772040215660337,-19.28086574206564
2023-12-07 14:09:03.789337,-23.718439450286056,-2.879536444572893,-4.403041056184499,0.7572348163145614
2023-12-07 14:09:03.806767,-58.63387012324349,2.06114465091804,-0.8883318646019459,-14.46080071518602
2023-12-07 14:09:03.850856,-44.451113795587126,2.111619735048884,-5.441098256320716,-24.88562566559388
2023-12-07 14:09:03.924976,-11.337480718497694,4.377454318753422,-5.331789342802776,-3.0458124723986177
2023-12-07 14:09:03.969341,-20.6760636199104,2.979181397683024,1.0775164389155176,0.2882356724802594
2023-12-07 14:09:04.098865,-40.04478468850932,-3.452609247905592,0.456178617820715,-10.078490637055722
2023-12-07 14:09:04.126606,-21.791586387886746,-2.023401457154768,-2.872902597554356,-3.5121958939362914
2023-12-07 14:09:04.163228,-8.009488589442352,-2.9718084170939085,-4.440702018415181,-3.708872501171205
2023-12-07 14:09:04.286676,-14.853157006121284,-6.072132496226115,-2.8169426083651508,-7.670169603790232
2023-12-07 14:09:04.308782,-9.168106207907003,-0.0618750721711328,-0.9413624242425118,-0.1259657442872602
2023-12-07 14:09:04.401558,-5.652727693785499,1.1838087821034178,-4.134569900687442,-6.515737479350759
2023-12-07 14:09:04.421435,-10.866031438142969,-3.605268689267073,-3.847971150333972,-17.150520930204074
2023-12-07 14:09:04.459393,-9.360325786153174,-1.4720850944680288,-0.9554641681350714,-8.737760994376709
2023-12-07 14:09:04.486656,-16.900288811254306,0.6265821417564765,-2.668407467179541,-10.076396981082384
2023-12-07 14:09:04.538445,-20.33118346760503,-1.6705765538037274,-2.680453277695201,-17.038183154063265
2023-12-07 14:09:04.738069,-6.762419178844565,0.2951613806870841,0.9862776185586214,-1.3236320610034276
2023-12-07 14:09:04.860908,-6.636431264533392,2.687946276243874,3.75620423431212,4.799223944494418
2023-12-07 14:09:04.881386,-6.935457934730655,-1.5929365825991044,3.639301649107775,-2.379549406650705
2023-12-07 14:09:04.903843,7.990136810225027,-5.537173389732292,1.906866982554673,8.213488915454795
2023-12-07 14:09:05.055454,6.921974940646785,-5.278407268558114,0.5501362572313339,11.18637505292988
2023-12-07 14:09:05.087524,-2.969380789724598,-2.976872810483809,0.334826497521276,2.653861981666948
2023-12-07 14:09:05.128883,-2.093895290727693,-0.7150305070850799,0.4020100608237608,2.0537785379228963
2023-12-07 14:09:05.153840,0.0494140908876367,-1.7423837251690737,-1.5715408156845938,-3.851385316435432
2023-12-07 14:09:05.182072,3.9966270707108302,-1.0213847775560108,-0.806659869061847,-0.6012996395622628
2023-12-07 14:09:05.203438,-3.021812516882969,1.2721024023976224,3.589122529770891,11.0398896368492
2023-12-07 14:09:05.245072,-16.226209281118432,-1.4256704725273366,4.683698879184345,10.986456593324649
2023-12-07 14:09:05.299625,-11.817268210304052,-1.6764718084835202,5.361500907324661,8.050157485840398
2023-12-07 14:09:05.370285,-15.258196158827326,1.229585091261615,5.731013688001004,-7.903014972829254
2023-12-07 14:09:05.406990,-15.09095539187736,0.7027208441349571,3.832216397782296,-12.73507440258316
2023-12-07 14:09:05.654329,4.7329732731462,1.192682074542639,4.497878316805884,11.641516421168266
2023-12-07 14:09:05.715656,0.3805154694197669,2.5451379831277574,3.0202480355755656,12.74093592590749
2023-12-07 14:09:05.763692,-0.6325813974301454,2.9432277192608645,-1.850235925664533,2.176433282259771
2023-12-07 14:09:05.884428,15.06669935909206,2.014725339535113,-2.271763761160946,7.42668926312436
2023-12-07 14:09:05.938181,6.816377734405404,-0.2549795853400307,-0.4476994796855945,3.081196619270024
2023-12-07 14:09:06.014206,5.0949856001891085,0.6620115868053341,-0.4240857182520748,0.3965615963582001
2023-12-07 14:09:06.053963,13.147838351533506,-0.0264644522374412,-0.4175557601886355,6.247291560317945
2023-12-07 14:09:06.141209,9.427527594100225,-0.0659244740604154,-0.5962838897919137,3.2545996300967457
2023-12-07 14:09:06.251024,10.862479015947429,5.770510962404456,-1.6242085470130374,-5.157750936505209
2023-12-07 14:09:06.264178,10.857964789811604,5.06729937206245,-2.0082046533146536,-5.860421569124042
2023-12-07 14:09:06.348537,8.786092085883803,1.160691131638921,-1.3751322405417936,2.147842994373542
2023-12-07 14:09:06.358563,10.923696489578576,2.767098370290282,-0.7519681940940525,0.7177717173328891
2023-12-07 14:09:06.414594,12.958464994638854,2.063538099499913,-2.124653656725621,-3.61736503077992
2023-12-07 14:09:06.460639,12.89079617556014,0.5863184975160646,-3.6732482481948914,0.9473545902862378
2023-12-07 14:09:06.491652,6.936540147856411,0.6304588108701216,-1.4158080574186414,-1.4296864344687985
2023-12-07 14:09:06.652124,6.353290275068347,-0.0540728711861715,-0.0885529347064225,-2.812857106346345
2023-12-07 14:09:06.690353,8.185855162001738,0.9749488330088748,-1.6391844791000418,1.810662539465353
2023-12-07 14:09:06.706817,2.3464665195535512,-0.2385045396772746,-1.7473459349440306,-2.6777184652948134
2023-12-07 14:09:06.755710,0.2395306100393963,-3.026506760048769,-1.8112749715278464,-4.055088851573681
2023-12-07 14:09:06.825562,2.646645555024268,-0.6463294532549817,-1.0950201830345203,3.3962152429110404
2023-12-07 14:09:06.848666,3.1840498978414105,1.532741552961277,0.5853765039398016,3.6388890353785337
2023-12-07 14:09:06.980154,0.2604694046466895,-0.229923704612039,0.192506476098577,-0.3556712475329584
2023-12-07 14:09:07.057014,-2.823503414501598,-1.1753828990282362,-0.380277080865517,-0.7809814292976093
2023-12-07 14:09:07.108413,-1.1785829267209926,-1.007930718187982,-0.2756361671152403,-1.4350550678257588
2023-12-07 14:09:07.149669,0.7589390334230949,-0.0762273590877283,0.3645025848530402,0.0455989218447096
2023-12-07 14:09:07.223361,0.7983699881762654,0.1263957018899721,1.08200858093934,1.7929994860391003
2023-12-07 14:09:07.248632,-0.6242531313573088,-1.4894674761857851,0.6872024371555487,-0.4419386668853521
2023-12-07 14:09:07.339654,-3.0539452603615214,-0.7122222677355589,1.334091372954716,0.3406801861320964
2023-12-07 14:09:07.361664,-5.618351577292099,-0.0155664239725399,1.6777763317262682,-0.6098376825038201
2023-12-07 14:09:07.403761,-7.653457127352577,-1.719709492551296,0.3317097821026945,-4.446845142337888
2023-12-07 14:09:07.703690,-6.173138584682483,-1.1242138330569678,0.684926569659512,-1.4910534359913423
2023-12-07 14:09:07.726832,-5.504023757185785,-0.1730554795460536,1.3888821156331568,-1.342345998397101
2023-12-07 14:09:07.777816,-4.531138550041759,-0.6161941872471397,0.8436260708769905,-3.803012953739772
2023-12-07 14:09:07.871796,0.5267406411420279,-0.1271597978713874,0.9385746850438528,-0.3384533885360726
2023-12-07 14:09:07.902908,1.219548190414816,-0.177873990803902,0.5328243174640811,-0.5028971192619308
2023-12-07 14:09:07.976796,1.4347307491082113,-0.2527621425093299,0.1710822741532088,-1.359166251322421
2023-12-07 14:09:08.183709,4.789447385142084,0.6671121479534131,0.8840666209065884,1.9914878175214887
2023-12-07 14:09:08.239052,2.1658382478432663,0.2376960833316963,0.2105327432659865,0.8901448322955582
2023-12-07 14:09:08.336068,-1.2970251571609075,-1.1992721437264755,-0.4286353563903617,-1.6257078720001266
2023-12-07 14:09:08.345568,-1.104558392929419,-0.9918993627749082,0.287836445719147,-1.3845029163162224
2023-12-07 14:09:08.374773,-0.2740675883648505,0.2144096979005298,-0.1166439908309756,-1.4026774199211998
2023-12-07 14:09:08.458946,2.9773616857995053,-0.0483858707528676,-0.645331984219847,-0.4681477702890526
2023-12-07 14:09:08.487268,3.090098415508716,-0.575280425481345,-0.0718936295717477,0.2725306994450275
2023-12-07 14:09:08.527049,-5.134868385159685,-0.7341859909233368,2.510270717815384,-4.395123101594611
2023-12-07 14:09:08.574061,-3.808250663318719,-0.5588757085578627,3.5393055087294303,-0.4327998906972503
2023-12-07 14:09:08.613085,0.6791355716898729,-1.5237174107538054,3.909902370760049,7.353689523738335
2023-12-07 14:09:08.653603,-3.706042661013375,-1.4480518688055473,4.679457637043038,1.5040059991326191
2023-12-07 14:09:08.676651,-4.938707399092665,-1.6399544612151828,2.1930553889216724,-4.793946139069664
2023-12-07 14:09:08.708889,4.4111777661987,2.121505037998166,-4.60220193220522,-0.3567965127516413
2023-12-07 14:09:08.739749,8.109017805915432,5.606237781108321,-9.569717370613883,-2.097989828474593
2023-12-07 14:09:08.770901,-1.813718897498756,2.8693705899612016,-10.231755829779614,-19.999453947458715
2023-12-07 14:09:08.869093,-4.845769046790641,-0.6987070637420293,-5.314999249362046,-17.274971109700598
2023-12-07 14:09:08.882093,0.8100799391376745,3.423442846612497,-2.974834226088824,-3.204757065854976
2023-12-07 14:09:09.114520,-3.6281442344772943,7.5149913403825055,-6.878101895969584,-16.306671487437402
2023-12-07 14:09:09.198372,2.339555797019348,6.719121988225245,-6.4621939825361165,-5.9756558426256285
2023-12-07 14:09:09.337263,10.439719765382325,8.685276717361011,-4.502573768246607,11.043935604469407
2023-12-07 14:09:09.467989,-3.330920938857317,7.221970756863533,-5.977190921906828,-14.307964661139078
2023-12-07 14:09:09.572710,-7.816474695371445,2.5730578170279848,-6.450414554846601,-23.409103675491696
2023-12-07 14:09:09.596755,-3.639505245538328,0.9936509978619232,-8.14738300468136,-19.78283697852384
2023-12-07 14:09:09.681942,-2.6765296898851485,-0.4352923267977348,-6.901065355345692,-16.3753885849331
2023-12-07 14:09:09.730880,-0.9892905427495406,0.4710353075948504,-0.0168813742659627,-1.6801090533846006
2023-12-07 14:09:09.793894,-6.431014167934485,-1.577351756764355,-2.3439337861334,-15.007930986372765
2023-12-07 14:09:10.005426,-5.723550121757296,-6.271713325070492,-6.152996819826813,-21.359465121139863
2023-12-07 14:09:10.149144,-1.4173525389239343,-6.30827820899968,-1.8723847498862864,-7.021404910600382
2023-12-07 14:09:10.432047,1.3214963503933232,-8.980277167784378,-6.21163860649142,-10.524274584361972
2023-12-07 14:09:10.435046,1.717791660937294,-8.543600098302514,-5.909572933126437,-9.281971713656617
2023-12-07 14:09:10.441047,-2.613523849303003,0.3917379612790942,2.718836089665057,0.3011485190176218
2023-12-07 14:09:10.445111,7.865725578281208,2.599571972901018,-2.2042440917265846,9.635269034980755
2023-12-07 14:09:10.450141,9.11966807602451,0.6848057077497773,-3.912554248453232,8.35710053161302
2023-12-07 14:09:10.470506,-6.354840823165833,4.869082859210862,1.1572038852819495,-7.460815686069748
2023-12-07 14:09:10.508199,-5.753102575021055,7.036682739069302,1.8730157490618664,-4.726134588883398
2023-12-07 14:09:10.558315,-6.867170659615476,1.835748813272039,7.0867056313422365,1.0870102589220578
2023-12-07 14:09:10.686918,-11.583193322835074,-2.4776629158401184,8.694249040823076,-4.988438945089224
2023-12-07 14:09:10.713948,-10.253235144052052,2.5762981556911417,6.57062911125912,-5.182223135725722
2023-12-07 14:09:10.791750,-13.465442133498492,3.7722365091406473,7.472338590664528,-8.639477638782576
2023-12-07 14:09:10.937891,-7.372515811760394,-8.70445987723333,4.555743447660339,-6.727477819662541
2023-12-07 14:09:10.948087,-1.9029232640615232,-9.009277478119644,2.754418730956956,-0.8891401816131415
2023-12-07 14:09:10.960287,-5.095326521032638,5.422202989245842,1.5271783346323025,-4.503866213474467
2023-12-07 14:09:11.151443,3.3105992624249407,6.703300715681024,-2.433437404548248,2.9885742715600125
2023-12-07 14:09:11.213934,6.284929352365643,0.1560923979221186,-0.1212678035389766,10.095058523534078
2023-12-07 14:09:11.258663,-0.8593216505285977,-3.266526754579653,2.360186490141444,1.5831664041727949
2023-12-07 14:09:11.360322,5.144368668907544,-6.546680649456007,-1.01139326773837,4.854786121801513
2023-12-07 14:09:11.368356,7.193918461565272,-1.8324543147586307,1.7093449611176572,14.168938523880518
2023-12-07 14:09:11.426275,-2.412624937623344,6.102928756112688,6.755912546278056,9.10981028971727
2023-12-07 14:09:11.437439,1.1204999826837994,6.145423904872025,3.2931209190115145,9.114054015824722
2023-12-07 14:09:11.658689,9.177838563441084,4.922736797730096,-1.260907506939955,14.394381358049866
2023-12-07 14:09:11.702687,4.330255342303277,6.663635501348333,-1.985758319831899,5.683959862630378
2023-12-07 14:09:11.712860,-3.148001843058021,5.956449733718909,-0.3507295956201416,-4.113089794123145
2023-12-07 14:09:11.771285,-7.480581389476997,-1.7969764981870542,1.9891539724251743,-9.687082615132873
2023-12-07 14:09:11.849160,-5.207340343865719,-6.810083153838463,1.669962233342008,-8.03448061905076
2023-12-07 14:09:11.874286,5.06768342839109,-0.5249931891408778,-0.2334719169262593,7.749044456796395
2023-12-07 14:09:11.889539,5.603100298740396,0.6962699815935752,-1.473904675313178,6.926834401539737
2023-12-07 14:09:12.054717,-4.403894261804791,-2.8375968197777075,2.213984026901423,-4.586927424529082
2023-12-07 14:09:12.142489,-7.201857881198984,0.6632533988903588,5.900638328117002,-1.8599002937873552
2023-12-07 14:09:12.273241,-1.6891500674881257,-0.8871594606502495,-0.3930962972534185,-3.908223566956397
2023-12-07 14:09:12.285246,4.615709451327085,-3.27044972203129,-3.619272181675016,0.3042556305384411
2023-12-07 14:09:12.300041,3.6092861578520026,0.0305708925087736,-0.0599702300879822,5.793415430380698
2023-12-07 14:09:12.314455,-0.94936384702149,-0.0689545784753458,-0.5133034499260307,-2.608910609082109
2023-12-07 14:09:12.349796,-0.8451519121230845,3.450346364781349,5.004260077563574,8.1635895609512
2023-12-07 14:09:12.360500,-3.659463856742153,6.212589717747743,8.60612515255335,10.583769531138271
2023-12-07 14:09:12.395705,-7.393545173699412,2.548704746899401,-0.561204134368925,-12.4639008201989
2023-12-07 14:09:12.470334,-5.707265321647062,3.152351358045588,-0.1859609713786198,-8.769909000519219
2023-12-07 14:09:12.481753,-0.5516293815697193,1.4290526410298474,4.385339483973377,6.933533276898986
2023-12-07 14:09:12.516470,4.920485554997178,-2.103230798103759,-2.029598887244325,3.906403403883405
2023-12-07 14:09:12.536039,0.9375157604872518,-0.5643515817388199,-2.7354196332520515,-3.343448225204426
2023-12-07 14:09:12.636624,-4.397616050260239,-1.4934311296662257,2.353585440671765,-4.04153622784176
2023-12-07 14:09:12.904380,1.5675706861955103,-0.5271127442658696,2.3589582920258527,6.3382285678834975
2023-12-07 14:09:12.938268,5.884429136762804,0.6658487857114053,0.5121069576625745,10.940178214103936
2023-12-07 14:09:12.969001,2.610293917713164,-2.68757468170297,-0.720368511749258,2.003392722698051
2023-12-07 14:09:12.985992,2.7646007049673824,0.0440703861237455,1.3321261517596534,6.842967813526036
2023-12-07 14:09:13.037612,6.227430205845236,2.041481450655354,5.322931547015887,20.23312235079457
2023-12-07 14:09:13.202817,3.443695234270288,0.9706808824669092,2.659419602064024,10.627881708416384
2023-12-07 14:09:13.303603,1.2095108837347373,4.692299010328768,-4.710243638970468,-3.939661304396976
2023-12-07 14:09:13.576119,4.048236477589748,0.3099455024478177,-2.1754912887161244,3.232339630847123
2023-12-07 14:09:13.583133,0.4691217174736816,-5.121818711512114,3.599391646743128,4.545449820612158
2023-12-07 14:09:13.638258,-3.803808451229589,1.4400820325034651,-2.43771754598444,-9.923277213404004
2023-12-07 14:09:13.798949,-3.858462116807341,2.269565615598026,-1.2416439690277628,-7.623482895317035
2023-12-07 14:09:13.810101,-4.540948665967102,-1.792493198188011,6.621298816370754,2.609872807301304
2023-12-07 14:09:13.818119,-0.5563101755202453,2.724735168199836,0.9978739360042702,1.9471681988712333
2023-12-07 14:09:13.829377,3.720254300597133,7.1516730353542535,1.752871998361056,12.51860874146594
2023-12-07 14:09:13.888823,5.872048149482827,8.515594571310618,5.218621745372136,22.65932374990008
2023-12-07 14:09:13.987172,-0.3585956762897422,3.778340937015158,-4.639537473664026,-6.627125604952947
2023-12-07 14:09:14.058758,-4.451622584482976,-4.115023120231008,-0.8064273662265244,-10.931611363886288
2023-12-07 14:09:14.112766,-0.9552736224838226,-3.035591247596968,-4.405068201133403,-10.540026508452094
2023-12-07 14:09:14.124970,-1.07825557527841,-0.6268249315445334,-0.2697144592150466,-2.6239814742611
2023-12-07 14:09:14.158952,-0.6889982266512502,-0.1688611852012299,3.997915021486696,5.424411467015054
2023-12-07 14:09:14.172949,0.2968914768296176,1.8081850285052965,2.212705497742354,5.099508273481035
2023-12-07 14:09:14.285875,0.5660321582729541,1.0365012665521207,1.3629132796817514,3.747248408433154
2023-12-07 14:09:14.356505,2.975321309893625,-2.953233260500615,3.2591676640731544,8.974103746475935
2023-12-07 14:09:14.418356,-1.5068349707353816,-5.665876013387032,3.540849532587945,0.4080853710907318
2023-12-07 14:09:14.435884,-3.76702148518975,-0.5825829312225312,0.7123805136931506,-5.542103334035076
2023-12-07 14:09:14.458074,1.4201909318975126,0.244187465567122,3.721591749454232,8.75630650865858
2023-12-07 14:09:14.884789,-4.111104394283816,-6.087367104789,1.61348421270191,-7.591310413962245
2023-12-07 14:09:14.904343,4.602393113015318,0.345371916404266,5.712161525784428,17.57160074164021
2023-12-07 14:09:14.914970,3.268428403582123,-4.347423153423674,5.13301149084764,11.772142628258909
2023-12-07 14:09:14.931058,2.4493091676758216,2.224282596339907,1.2875074962139894,7.534183298460896
2023-12-07 14:09:14.970362,4.323151973747815,4.812123576945738,3.504738849655223,15.886638976843264
2023-12-07 14:09:15.051385,-2.0289708151011205,-2.8806310653308502,-1.473715137356027,-7.549697031395019
2023-12-07 14:09:15.071879,-2.9875681950352084,-2.980120103525092,-5.004756124556931,-15.159697983396937
2023-12-07 14:09:15.089417,1.172793512695575,-3.8042669199412935,0.0504444955398765,-0.0745349417473008
2023-12-07 14:09:15.126227,0.8036608112697317,-3.19157044782845,-2.36842824839134,-4.412309858087845
2023-12-07 14:09:15.144238,1.4314015691909328,0.2035481416071601,-3.691627641416622,-3.618179501410097
2023-12-07 14:09:15.233980,0.6436869034076178,-2.2083639004106086,0.8736656579554659,1.278722715939976
2023-12-07 14:09:15.285662,-2.262994156658969,-3.4001138398201323,-1.323050631589584,-8.060238659741643
2023-12-07 14:09:15.370909,-1.0570101688418918,-1.0903860364227993,-2.7197765513271843,-6.995054686946549
2023-12-07 14:09:15.408385,0.4275073875398437,1.4692457129974752,-2.1323829055718124,-1.975848024469168
2023-12-07 14:09:15.688296,1.408339434073773,4.182374628043384,-2.547002859639463,0.6146572413935272
2023-12-07 14:09:15.732729,1.543800795699748,2.588831539467193,1.270223372499693,6.290047492137838
2023-12-07 14:09:15.757721,-1.3143637328422262,-1.868901699157961,1.0813035508560591,-1.565252999571607
2023-12-07 14:09:15.822509,-0.0771146215627303,-0.7963539302351873,-0.2775924122984693,-1.0762256510675992
2023-12-07 14:09:15.983393,1.4381392862178206,0.489139336035974,1.452396484521468,5.179456287843319
2023-12-07 14:09:16.053558,-0.1955099113228073,-0.1804870444456913,-0.6511181134098294,-1.5339209915246883
2023-12-07 14:09:16.073005,2.1147937033524795,4.647977954216604,-1.9426585948860784,3.190046411012336
2023-12-07 14:09:16.106692,1.2861919935171795,2.7763896915454604,-1.4656374559153642,1.4424414583853635
2023-12-07 14:09:16.136018,-1.292387807581241,-4.88202695015254,2.6791508682964578,-0.7197485248082157
2023-12-07 14:09:16.148013,1.04139925430945,-3.326603005164966,7.79952836666028,12.763211086164556
2023-12-07 14:09:16.158556,1.302372673565389,0.8674670951359363,3.7814236903297633,9.068726249112803
2023-12-07 14:09:16.245884,2.74757931201106,5.226627153792195,-0.5514081791205608,7.003551400667664
2023-12-07 14:09:16.304378,2.858561688566569,1.993600531672037,0.9004221575215969,7.638426327864421
2023-12-07 14:09:16.559623,-0.7418609659172343,-8.055560164860616,6.115179147937237,3.956912653047179
2023-12-07 14:09:16.579893,0.4545678048085652,-5.4275890036233445,7.794069688195628,10.423266432094582
2023-12-07 14:09:16.618566,-0.7259984685588934,-2.46812792687864,-0.1820278642788849,-3.076181471468716
2023-12-07 14:09:16.639874,-0.5048980055350902,-0.2905738682058517,-2.5118270764283177,-5.232244214599601
2023-12-07 14:09:16.696781,3.937696789246638,6.025890987943784,1.3679219379733472,12.790635786338823
2023-12-07 14:09:16.752633,-0.2201006995035141,-2.562615864363102,1.473392941618637,0.4877728841511407
2023-12-07 14:09:16.793642,-2.3032455162019656,-6.56261306706674,0.8205967328375163,-6.670174985828546
2023-12-07 14:09:16.845220,0.6874599867067069,0.202015134056728,0.3682102869248426,1.924869733726415
2023-12-07 14:09:16.879215,-0.2416997915226431,-2.1782335634998,2.805092541890315,2.9062499049340733
2023-12-07 14:09:16.907221,0.6046236300810155,0.0264018627276388,2.3194966664381886,4.925190429426423
2023-12-07 14:09:16.973649,3.5104192700088555,5.343273018838819,-1.500268436016737,4.509445704801714
2023-12-07 14:09:17.078904,6.280241324815407,8.351837988834276,-1.9818572497462084,7.771420065849119
2023-12-07 14:09:17.409712,0.7555360177791501,-0.1466729690773283,-0.3335093736782537,-1.098731937295384
2023-12-07 14:09:17.429408,0.6494488858457598,-1.7648892945822583,3.963290549673788,6.4113326689601005
2023-12-07 14:09:17.501123,7.294594455202033,7.823457380536933,0.9705762174916044,13.704267787701884
2023-12-07 14:09:17.516494,5.273280591625136,3.266706350095182,6.19981180022757,18.99759167067381
2023-12-07 14:09:17.705267,2.9006248048675864,-1.17374731540259,8.961797916769182,18.74390390381028
2023-12-07 14:09:17.720810,3.798578919562381,4.239331931513116,2.300182302043,11.618136037638296
2023-12-07 14:09:17.734655,1.3558693347349726,1.823544403719494,1.3695650357859912,5.942826348419761
2023-12-07 14:09:17.986433,1.7907888559418268,1.5462675572713305,0.7911105110750876,4.083128905893083
2023-12-07 14:09:18.050159,3.038238386709396,4.168403096918518,0.353565936449805,7.052195649470368
2023-12-07 14:09:18.066335,-0.5087461839687349,-2.927243479467789,2.3903423566205526,1.0410813612612635
2023-12-07 14:09:18.141930,1.7279600113611655,-1.3109274986762196,1.50279299959714,1.212044566199309
2023-12-07 14:09:18.224950,6.4961010672643145,7.717100693743003,0.3799488062974477,12.265605159252337
2023-12-07 14:09:18.242850,4.347664654494339,6.726318456910297,-2.1147720208282768,5.150435073506986
2023-12-07 14:09:18.299846,2.8959906140618763,3.6210121884724926,-1.497503042301768,1.8628749898537844
2023-12-07 14:09:18.381784,4.10651307330759,2.1245753956822515,3.0855591343182107,10.048351453205456
2023-12-07 14:09:18.416771,3.041701665824596,0.6041542555432626,3.36970235122701,8.447245558210955
2023-12-07 14:09:18.535804,-2.9422673450422248,-3.0680280835454714,4.182847238593652,5.368349553403063
2023-12-07 14:09:18.642790,-6.1109319916874965,-4.502566668469539,4.00830115600442,3.131518735445362
2023-12-07 14:09:18.689800,-1.4600048649263002,2.357166629971238,-0.338219380715343,3.194811516034037
2023-12-07 14:09:18.740382,-4.362985235458377,0.4552246306045784,-1.0771102811849185,-1.1469600750738445
2023-12-07 14:09:18.774815,-7.972749145281303,-4.671135242173661,-1.6867455132779756,-10.216852225959768
2023-12-07 14:09:18.800281,0.912318246162526,3.5231054005467186,-2.922564974634174,-1.3475183969720437
2023-12-07 14:09:18.853649,4.347472876352119,5.892942429341458,0.8110982681529281,10.681625908322872
2023-12-07 14:09:18.976140,0.5209006492809602,0.0570896981191596,1.7098265095655465,4.048792909133696
2023-12-07 14:09:19.007520,1.0035313449392245,-1.056154936938995,-1.4325924144656963,-5.157829403744659
2023-12-07 14:09:19.030952,0.4840915054908202,-2.505203689945367,1.299157112738129,-0.9871251615174316
2023-12-07 14:09:19.160932,-4.857550529053012,-4.891301536555606,3.922080349804149,2.130535915409311
2023-12-07 14:09:19.217941,-8.20734216003119,-6.511160571572079,0.4961105915367909,-7.995837147178882
2023-12-07 14:09:19.283190,-6.986923969451067,-4.563779738680086,1.6957926925598763,-2.259672152627454
2023-12-07 14:09:19.375754,-6.904819569093325,0.4759455621157776,3.9218469690984006,10.96831406353546
2023-12-07 14:09:19.431775,-5.342079881892909,-1.6886232740726133,1.1428484162183876,0.784571576644589
2023-12-07 14:09:19.638732,-5.468340684966412,-3.73328022607224,2.520375647878428,0.7766226216539229
2023-12-07 14:09:19.750269,-7.63027754499524,1.3114255143305094,1.9831691437092185,7.858870276146773
2023-12-07 14:09:19.765690,-1.2329106424561476,1.8922397177141288,-2.159407482827308,-1.846032560238266
2023-12-07 14:09:19.773759,1.9618750483063192,3.3257861863071243,-2.093663678007804,0.1305004687688444
2023-12-07 14:09:19.794088,0.5020381690216266,7.210292328357537,-3.273361133524189,3.759058957192819
2023-12-07 14:09:19.804490,-3.044290882560817,-1.3140317904778356,0.9227405625994988,0.5346267325805245
2023-12-07 14:09:19.857654,-9.480093213611138,-7.130080164057613,5.757777312906796,3.5344712225155
2023-12-07 14:09:19.958328,2.494221407326623,1.2999397091171283,-2.343373210640752,-3.756022845132018
2023-12-07 14:09:20.000332,8.707770379813866,2.916657342709124,-2.811593047709587,-3.1736314552902622
2023-12-07 14:09:20.069903,-7.120193263373115,-1.9880661731005744,5.873155654162478,11.65075727646484
2023-12-07 14:09:20.149467,-10.763339342924606,-1.4615540080074347,6.174057758839036,13.71820201909734
2023-12-07 14:09:20.216481,-4.472448773545526,0.5497986275827904,5.237342616733954,13.819615119609216
2023-12-07 14:09:20.232489,4.710930434590241,2.310085783551694,2.5239243869043944,8.941114704078581
2023-12-07 14:09:20.259054,5.221072397342965,0.2113248239389097,-0.406346216600905,-1.3410028449077478
2023-12-07 14:09:20.291346,-6.792095118609394,-3.321886111332649,3.280692627526897,3.404364083004244
2023-12-07 14:09:20.339901,-2.890139077493623,-0.7334571195034719,1.6683534659486252,3.1845117368169342
2023-12-07 14:09:20.684536,-1.420926421716462,1.4642460890741134,-2.36842865078466,-2.989722534329003
2023-12-07 14:09:20.707546,-6.453852250928553,2.245865653054829,-0.8843648317968383,2.4567895347738955
2023-12-07 14:09:20.765129,-2.3508467208189576,3.6964179799560952,-0.6975609021020426,4.613495050657227
2023-12-07 14:09:20.806127,-6.7142796494465165,0.4602151769894764,0.9031124426974424,3.841309864934043
2023-12-07 14:09:21.025220,-5.59247418940285,-1.3762093470542032,2.973194378649335,5.608506090539126
2023-12-07 14:09:21.038772,-3.976865709456245,1.1504431603351477,1.1685257613243236,5.168418560351873
2023-12-07 14:09:21.091036,-8.968984449268088,0.3835983373494285,-0.9458997119389028,-0.2898828595338864
2023-12-07 14:09:21.129258,-2.642737594828153,-2.241627042169786,-1.1917917716251265,-5.955075392589216
2023-12-07 14:09:21.135279,-4.723770388022066,-2.191721420483057,2.446713601235505,2.951584942347848
2023-12-07 14:09:21.230051,1.2976494789035395,-0.2436275229958912,1.213069009418736,2.2951306605555173
2023-12-07 14:09:21.340052,14.733196150639904,0.5832196377323339,-3.9908018596539487,-10.517956392019256
2023-12-07 14:09:21.363040,-1.7395576331268068,0.1957769618427534,-0.5197128126009504,-0.6297012675319743
2023-12-07 14:09:21.369054,-12.444009187963964,-0.0246852005762461,1.4386538459706866,5.1491414492809575
2023-12-07 14:09:21.417064,-7.148491774557193,-0.621103357808415,-0.2861905173904337,-0.6045951168510759
2023-12-07 14:09:21.434090,-2.518588970806691,0.4768599552805745,0.7795881378599561,2.9751770387039707
2023-12-07 14:09:21.464631,6.683810328312112,-0.9212807205216916,0.1417079489467139,-2.0691509429316755
2023-12-07 14:09:21.549212,1.7887975162387275,-6.434952015532446,1.5496865366690058,-6.841852208819866
2023-12-07 14:09:21.570204,-2.5718806997899493,-4.692060570573046,1.4893796284230034,-3.581510085646882
2023-12-07 14:09:21.732716,-0.6306184488456643,0.7175908334102344,-0.8714380953793676,-0.7826760681232016
2023-12-07 14:09:21.788254,-11.195023663349996,0.496581595041474,0.8850739584189934,4.502049049496644
2023-12-07 14:09:21.871815,-11.474882062440209,0.9434520298594092,0.0835814527062383,3.3751676196330576
2023-12-07 14:09:22.029482,-5.637937095441337,2.3919194594675943,-1.107931559713143,2.048673964576076
2023-12-07 14:09:22.052329,-4.419820735983603,1.648599376804058,-0.5033396461462263,2.107278046313939
2023-12-07 14:09:22.069505,6.574036563063388,2.8998376618241903,-2.448543450483519,-2.041445308520131
2023-12-07 14:09:22.097358,4.585170664701729,4.392032315062054,-1.486654512313123,2.874453796732466
2023-12-07 14:09:22.217946,-7.898630030746501,2.288710233468185,0.2832437655623197,5.470318752667037
2023-12-07 14:09:22.303520,3.231770545377355,0.1124406404099636,-0.1775403872182642,-0.6749205193792016
2023-12-07 14:09:22.318978,13.734287497963678,1.2571594122806098,0.0444693282483007,0.1569307538728117
2023-12-07 14:09:22.327201,10.49887738078716,3.942656068853722,-2.3001973835284826,-0.5981473590964392
2023-12-07 14:09:22.354824,17.420396886972025,3.584224154560393,-3.93282786582705,-5.99081439747659
2023-12-07 14:09:22.365196,10.09269155109113,-0.2824190460497788,-0.9226480199231024,-4.0365972734434985
2023-12-07 14:09:22.605976,-9.181382986723628,-1.3814780903796906,0.3290592122408158,-0.0798966424179667
2023-12-07 14:09:22.682498,-1.903458853214681,0.1979833948257349,-0.7866531723109715,-1.2274895459541946
2023-12-07 14:09:22.766724,7.012269530123685,-0.77564665264857,-0.6264659052800535,-3.684345072168423
2023-12-07 14:09:22.785729,10.167328872191602,-0.6025776705164197,-1.6018713590559284,-6.148782415698903
2023-12-07 14:09:22.974847,22.42159994187298,2.0132184467999648,-3.3315793567392995,-7.801591274918785
2023-12-07 14:09:22.992852,23.067367733785083,1.057178093426151,-2.3408127381855506,-7.094171239722214
2023-12-07 14:09:23.020064,23.335352801028904,-1.2710054479358517,-1.3821804352453888,-8.591948002927353
2023-12-07 14:09:23.049991,20.57738244713911,-0.8265481421683597,-1.5261232346171505,-7.825065989030702
2023-12-07 14:09:23.141723,7.134787270252213,-0.5111666753860018,-1.039196367112002,-4.248113637732687
2023-12-07 14:09:23.185396,13.568994469184767,-0.7560676752622946,-2.081566199019224,-8.006528151101081
2023-12-07 14:09:23.244510,4.731396069019079,-0.7727879708293215,-0.8646327356871104,-3.909658544530652
2023-12-07 14:09:23.378372,-30.77489584315692,-1.1687692134114462,3.466681962323685,10.71903623224108
2023-12-07 14:09:23.432390,-30.33319201057485,-0.6363772853660321,2.4249507306663376,9.06142417117746
2023-12-07 14:09:23.555793,-1.1963485577805748,-0.915799763821202,-1.3930053880478674,-4.522937359931532
2023-12-07 14:09:23.587793,10.558900665088917,-1.5734672069653557,-1.2202284202558178,-6.855780767025248
2023-12-07 14:09:23.597797,0.7927742180959847,0.2950787766995584,-0.5070073356100313,-0.804910373215701
2023-12-07 14:09:23.627050,7.347320378305262,0.6642008315985649,-2.2636483937371765,-5.277307997968277
2023-12-07 14:09:23.673560,17.488627728030007,-0.9086056497837663,-2.253678593988216,-9.216328855491431
2023-12-07 14:09:23.695712,-6.449495689985564,-0.3255295689900782,0.1819084091801596,0.8636840545697458
2023-12-07 14:09:23.725017,3.709860230986424,0.8234547432453212,-1.2160643373777669,-2.045198616865365
2023-12-07 14:09:23.785429,36.45841906460191,1.1520020476735462,-3.2702446170239177,-11.047409682286014
2023-12-07 14:09:23.818436,6.003933642159982,0.899443003067178,-0.4575304435253534,-0.4763481514026148
2023-12-07 14:09:23.922293,-22.40712578332903,-0.1137134563772505,1.6059119265257615,6.83390931182361
2023-12-07 14:09:23.953304,1.845930869950128,-0.6382209658527567,-0.4077396217436125,-2.2092054861514083
2023-12-07 14:09:24.104906,28.72951252114215,-0.344962177447595,-3.470925437636963,-12.788831575383664
2023-12-07 14:09:24.160716,25.414772462837,-0.107705476030495,-3.443235616418335,-11.869433822230242
2023-12-07 14:09:24.219729,2.5184189278931144,-0.2763318645703367,-1.1596645313696958,-3.4921552475781863
2023-12-07 14:09:24.420327,7.146164898123927,-0.1591993403387495,-1.458363859478631,-4.671440127416491
2023-12-07 14:09:24.446882,22.993078879436577,0.2180841064349258,-1.941189876803139,-7.481973089173031
2023-12-07 14:09:24.468882,6.968790262761113,-0.275344051996498,-0.8460119853405276,-3.3955599405767063
2023-12-07 14:09:24.495491,3.5732314353809813,-0.5728937447359813,-1.4455140744556334,-4.785859913671317
2023-12-07 14:09:24.542038,18.28739297289308,0.1949902257090844,-2.225834286201487,-7.508944133562238
2023-12-07 14:09:24.559051,0.9856871872345574,-0.0646641874856571,-0.7529542543345348,-1.981406970595734
2023-12-07 14:09:24.662575,-21.83952444384974,-1.1317676907312737,1.1820643515836304,4.138478509861834
2023-12-07 14:09:24.757117,-15.066660751359846,-0.3883234045673016,0.9781133212443122,3.8696772022194974
2023-12-07 14:09:24.884807,14.62677498079621,0.7055721001189713,-1.7091584088573748,-4.958601602340633
2023-12-07 14:09:24.897102,68.5756651985675,-0.2102513456681329,-5.669612534401042,-23.459077808024745
2023-12-07 14:09:25.062611,97.21291717804228,-0.6743169448110731,-6.516987331028052,-30.30313337367121
2023-12-07 14:09:25.150153,22.722044479056866,0.0261392355816548,-1.0933421479219487,-5.761231625154176
2023-12-07 14:09:25.188366,-24.14980654544556,0.0675633329455546,1.5617229724584556,7.269835370683625
2023-12-07 14:09:25.283911,-9.05312306963933,-0.3435034922214694,0.5188349070118924,1.999626192747545
2023-12-07 14:09:25.327945,-6.789985270941947,-0.4194437417739002,0.5992324492497109,1.7416415151882438
2023-12-07 14:09:25.354474,-24.384457498049866,-0.2656761370859357,1.608774684272913,6.883420886748803
2023-12-07 14:09:25.410610,-14.42485237972511,-0.3307090877354834,1.2754014552126345,4.56591907265868
2023-12-07 14:09:25.488655,-14.644330664820789,-0.3600673656973138,1.4612901378239007,4.986439805979477
2023-12-07 14:09:25.653752,-28.9506123696187,-0.4945344083175716,2.0420217026583662,8.191372172747448
2023-12-07 14:09:25.911893,-26.105214904499896,0.184394548484398,1.854280985412608,8.41832089694323
2023-12-07 14:09:25.966579,-29.151060105343586,0.205739843237373,2.0703480241621,9.396830544784557
2023-12-07 14:09:25.991576,-35.177936706436874,0.247976889485422,2.497884021060732,11.333019706868036
2023-12-07 14:09:26.097545,-24.985688248295748,0.1765550674610357,1.774860924669604,8.05858764765757
2023-12-07 14:09:26.117591,-19.420293818951123,0.1375585691872136,1.380058783767967,6.270577131529767
2023-12-07 14:09:26.237188,-34.42632853165461,0.2427235878418381,2.444559975244517,11.09139096120852
2023-12-07 14:09:26.259765,-34.974024138892126,0.2465689438996359,2.4834093854656167,11.267259127905657
2023-12-07 14:09:26.281960,6.723153785464765,-0.0456274987104743,-0.4745248041009177,-2.1286050067100564
2023-12-07 14:09:26.301958,53.43300862513291,-0.3729504189224776,-3.788050768847102,-17.134872483479715
2023-12-07 14:09:26.316961,51.33712750426614,-0.358251815624677,-3.639377322802016,-16.46167597512492
2023-12-07 14:09:26.355244,17.266212818768157,-0.119477683256214,-1.2224472751543958,-5.516098121425574
2023-12-07 14:09:26.416268,14.294163710200433,-0.0986365183058531,-1.0116210351612795,-4.561451800751379
2023-12-07 14:09:26.500803,18.870646114289134,-0.1306925897065561,-1.3362759822583825,-6.031884856660583
2023-12-07 14:09:26.564094,17.019656265434882,-0.1177050404123868,-1.204977004930241,-5.4374236396884665
2023-12-07 14:09:26.833296,29.822518568979685,-0.2074073241891194,-2.1131991629518274,-9.550718527570297
2023-12-07 14:09:26.989900,-12.576634218940123,0.0897356295183912,0.8945198114974149,4.070339303788055
2023-12-07 14:09:27.014903,-56.2080003655287,0.3955149014640449,3.989649459419674,18.087247086807444
2023-12-07 14:09:27.023909,-46.20304412769139,0.3254234345980939,3.279904584739164,14.872772036961951
2023-12-07 14:09:27.048995,-76.94788611233112,0.5408991028829429,5.460883963642332,24.74968692181247
2023-12-07 14:09:27.127083,-74.28350262184424,0.5222512053011168,5.271866378546421,23.89343805325065
2023-12-07 14:09:27.197485,-20.36398587949239,0.1444193962395737,1.446891995513124,6.570794907745264
2023-12-07 14:09:27.312251,-16.779093163306634,0.119323103332248,1.1925739286309345,5.418792538481103
2023-12-07 14:09:27.354793,-18.392216278881563,0.1306545472587126,1.3069941868942367,5.936706892401639
2023-12-07 14:09:27.394807,-32.14403993691765,0.227052556075044,2.282513727652628,10.354323675930738
2023-12-07 14:09:27.404925,-44.423271410628246,0.3131320642763144,3.153569462347043,14.29883772870507
2023-12-07 14:09:27.418062,-21.88112348812757,0.1551918363504192,1.5544523601027036,7.05651629773143
2023-12-07 14:09:27.469619,-42.61706588874795,0.3005363503841007,3.0254125216584,13.7178331419464
2023-12-07 14:09:27.559202,-52.15835850473531,0.3674321941451037,3.702241856396495,16.782710071009177
2023-12-07 14:09:27.606198,-9.510057615028655,0.0685954893145006,0.6768253556302432,3.080986824064204
2023-12-07 14:09:27.633210,-11.845087701330646,0.0849934320622714,0.842453159411916,3.830733359433773
2023-12-07 14:09:27.754214,-40.41612870088014,0.2852487642913305,2.869220706812402,13.00912877595741
2023-12-07 14:09:27.794211,-31.01277191693806,0.2193885579890487,2.202145444739648,9.987741840060254
2023-12-07 14:09:27.833221,-12.199903248573436,0.0875894446872496,0.8675741983840642,3.943415069689544
2023-12-07 14:09:27.857768,-15.710586580694828,0.1122299737837657,1.1165992164637977,5.07080949996198
2023-12-07 14:09:27.897780,-27.5847759244268,0.19548108480591,1.9589174207161029,8.88507850893811
2023-12-07 14:09:28.173487,-35.55174992374177,0.2513521449680495,2.5240636908854133,11.44409305860469
2023-12-07 14:09:28.198003,-44.135762163374274,0.3115481382790288,3.132981271242591,14.201328925919077
2023-12-07 14:09:28.210231,-46.900419760354495,0.3309641656978843,3.3290828695858834,15.089011222602975
2023-12-07 14:09:28.270879,-32.4853369772348,0.2299890315551101,2.3064811030953307,10.457468122989466
2023-12-07 14:09:28.536200,-17.307216803987394,0.1236674779638264,1.2297503470550408,5.580779943547503
2023-12-07 14:09:28.570711,-19.403148464263044,0.1383995691389874,1.3784125561615117,6.253597223673484
2023-12-07 14:09:28.587713,-19.0940387449584,0.136278372801141,1.3564646915208531,6.153754851388939
2023-12-07 14:09:28.612710,-17.87638850016825,0.1277910220027591,1.2700661159531272,5.762023572942636
2023-12-07 14:09:28.634717,-13.186177842486984,0.0949693824229177,0.9373294170576152,4.254678877489542
2023-12-07 14:09:28.690178,7.873021020956081,-0.0525620007851928,-0.5565971263648829,-2.5114245781864253
2023-12-07 14:09:28.709659,1.9056585533341552,-0.0106963614951453,-0.1333033894906733,-0.5949000248054046
2023-12-07 14:09:28.743653,0.5384852977785263,-0.0010672790495102,-0.0363399015516185,-0.1562533376042275
2023-12-07 14:09:28.767018,28.26757437313641,-0.1953380602312269,-2.003418465673886,-9.06516723749354
2023-12-07 14:09:28.788797,14.525123299640804,-0.0989845624305283,-1.0285732711817277,-4.650814192625287
2023-12-07 14:09:28.827061,16.285096505144818,-0.1112682574575723,-1.1534452125816812,-5.216823208802178
2023-12-07 14:09:28.837089,51.9231539742574,-0.3609618977194663,-3.681573881728738,-16.666614428541532
2023-12-07 14:09:28.863805,42.00481582934587,-0.291405549492073,-2.978005710635064,-13.480824519519029
2023-12-07 14:09:28.910815,42.137775318637445,-0.2922861471952026,-2.9874605252454858,-13.52415003635384
2023-12-07 14:09:28.979233,49.17683249351747,-0.34156282840626,-3.4868229133096715,-15.78615409519588
2023-12-07 14:09:29.025244,15.802595046236071,-0.1076313729655766,-1.1193316875936214,-5.06486421322326
2023-12-07 14:09:29.168384,7.371840320974888,-0.0484982267358715,-0.5212909349206082,-2.356997390145038
2023-12-07 14:09:29.303085,19.919630062254257,-0.1363779759775563,-1.4114343328103611,-6.388765109069853
2023-12-07 14:09:29.332094,19.539051023334096,-0.1336582057138745,-1.3844602699523338,-6.26712875914359
2023-12-07 14:09:29.732472,8.579209446625088,-0.0568009853453033,-0.6070105303884968,-2.746768988144974
2023-12-07 14:09:29.761581,-19.73891511727955,0.1416995887402089,1.4018076489457034,6.350163343949496
2023-12-07 14:09:29.780785,-28.65426013550464,0.204229765906477,2.034223950105144,9.213697692296616
2023-12-07 14:09:29.816404,-23.445852191400707,0.1677838111199992,1.6647239969297316,7.539790600930359
2023-12-07 14:09:29.830419,-33.65210045122091,0.2393605899993615,2.388714785530744,10.81804175985751
2023-12-07 14:09:29.875330,-26.45951516888391,0.1890101033463898,1.8784604282115804,8.506689885198199
2023-12-07 14:09:29.932660,-15.194411851532612,0.1101203075797644,1.0793082124217122,4.8869880755653705
2023-12-07 14:09:29.947690,-28.24924749767636,0.2016594787967031,2.0053731405860646,9.08038393826709
2023-12-07 14:09:30.099258,-35.721794560512805,0.2540791249149025,2.535439557847284,11.480397152251337
2023-12-07 14:09:30.126275,-26.434649173327937,0.1890503412864877,1.8766005225683275,8.496141289350474
2023-12-07 14:09:30.245787,-11.841563963731964,0.0868385614199089,0.8413667395010357,3.8072841930237855
2023-12-07 14:09:30.270270,-1.3694239834016453,0.0135053613929683,0.0984662050438694,0.4423360545519744
2023-12-07 14:09:30.485425,-0.0824939440542814,0.0045400005886858,0.0071496831398602,0.028258364902379
2023-12-07 14:09:30.563001,1.498250877458786,-0.0064845450465655,-0.1050094978584373,-0.4802088502493926
2023-12-07 14:09:30.594001,-0.3831918754630553,0.0067529593588166,0.0284334099264277,0.1235995482152968
2023-12-07 14:09:30.627016,-5.960313301080954,0.0458887380540999,0.4240419016575638,1.9146960010270475
2023-12-07 14:09:30.696398,-6.446100026108992,0.0493452359571097,0.4584794716604146,2.0701382031977014
2023-12-07 14:09:30.999799,-11.255630449024585,0.0831012913830887,0.7996365711092611,3.614643295620115
2023-12-07 14:09:31.018089,-6.150664015225775,0.0473783073071155,0.4374754527310306,1.973991119688138
2023-12-07 14:09:31.237515,9.865656920552576,-0.0648095139714751,-0.6987193389916719,-3.172071477723614
2023-12-07 14:09:31.277291,8.093423956013162,-0.0523393407099896,-0.5730226968819899,-2.603324132783725
2023-12-07 14:09:31.310244,11.991680302653872,-0.0796071958707659,-0.8495811986705132,-3.856290161366922
2023-12-07 14:09:31.315467,19.22549391673535,-0.1302504019009856,-1.3627585272806195,-6.180841821058789
2023-12-07 14:09:31.499699,3.544442233799835,-0.0203116027655886,-0.2503921403337413,-1.143688039234056
2023-12-07 14:09:31.512690,9.125980617206611,-0.0593770525806802,-0.6463592716640703,-2.937412340213017
2023-12-07 14:09:31.543696,33.85365003983194,-0.2326150853821909,-2.4005217271232,-10.88207429925738
2023-12-07 14:09:31.559087,32.67892408761157,-0.2243352248917383,-2.3172098748056422,-10.505246751655694
2023-12-07 14:09:31.667799,20.07170451650846,-0.135939498066858,-1.4228951341526297,-6.455574069833
2023-12-07 14:09:31.682808,10.326883294320355,-0.0676035000657126,-0.731634013396647,-3.325476453034736
2023-12-07 14:09:31.709817,5.020852547147931,-0.0303742800265042,-0.3552532083945518,-1.6213901042302648
2023-12-07 14:09:31.805391,5.259837500872407,-0.0320040569008506,-0.3722265355589325,-1.6987039807176
2023-12-07 14:09:31.907956,0.8971872682673259,-0.0013872833955064,-0.0627669762875593,-0.2976737873977211
2023-12-07 14:09:31.997154,-2.327059306729861,0.0212510407359165,0.1659364075793048,0.7376384301174721
2023-12-07 14:09:32.012228,-0.551189574021525,0.0088488272283521,0.0399399768747562,0.1666074153631469
2023-12-07 14:09:32.022459,-1.9703120545868225,0.0188356303274048,0.1405914898327245,0.6220190019155026
2023-12-07 14:09:32.132970,-6.268877106897007,0.0490001199288451,0.4455063764258897,2.0024990519377868
2023-12-07 14:09:32.239557,-4.552666793999393,0.0370134810268963,0.3237432095043711,1.4506643135327175
2023-12-07 14:09:32.277728,3.8117726708969526,-0.021563420192098,-0.2696341874198454,-1.2369902174017269
2023-12-07 14:09:32.304736,2.2656410598779653,-0.0106900523090964,-0.1599712916923948,-0.7407336572680971
2023-12-07 14:09:32.312728,-2.2031698295118063,0.0206638999714785,0.1570221625615376,0.6944828653674018
2023-12-07 14:09:32.342769,7.553276607650925,-0.0476706836284316,-0.5351007085534709,-2.440338728069176
2023-12-07 14:09:32.444637,13.035608623724691,-0.0860541569518923,-0.9240243774922192,-4.202033656462676
2023-12-07 14:09:32.481174,12.55006570168817,-0.0826170274416983,-0.8895962024638709,-4.04645900120454
2023-12-07 14:09:32.603733,15.391552565350906,-0.1024960340828097,-1.0911816851090614,-4.959723918678369
2023-12-07 14:09:32.677461,10.728283359027518,-0.0697843423412079,-0.7603914431332655,-3.461975649142536
2023-12-07 14:09:32.732485,10.316606213520869,-0.0668679625774481,-0.7312017937909036,-3.3300941704930667
2023-12-07 14:09:32.777016,11.808139044630416,-0.0772899508490598,-0.8370223009672159,-3.809630874965807
2023-12-07 14:09:32.795018,4.76520761316919,-0.027905321214553,-0.3374212240059789,-1.547346524048603
2023-12-07 14:09:32.815458,6.190750376576939,-0.0378670727833262,-0.4385595148997705,-2.005656708820981
2023-12-07 14:09:32.835836,5.950626798476358,-0.0361573180063247,-0.4215376236409034,-1.928836368600864
2023-12-07 14:09:32.882478,0.5291672952654322,0.0018609925952605,-0.0369596276375665,-0.187430589628427
2023-12-07 14:09:33.042032,0.4105274477791061,0.0027171078383868,-0.0285545636085644,-0.1496109435512697
2023-12-07 14:09:33.119902,-3.867294490902996,0.0327187114603635,0.2748966786734202,1.224414250701158
2023-12-07 14:09:33.202723,-4.062419459248589,0.0341084513001446,0.288728532306389,1.286833989459224
2023-12-07 14:09:33.262220,-6.032531789497615,0.0479357215938447,0.4284756577785326,1.919505945031872
2023-12-07 14:09:33.300443,-13.421988850446644,0.0997393920279503,0.952662879487153,4.293227618784925
2023-12-07 14:09:33.393214,-4.8070951435083815,0.039386742690547,0.3415278869296143,1.525357479410337
2023-12-07 14:09:33.619308,3.444455925241668,-0.018420918598396,-0.2438316117109002,-1.1257692974404043
2023-12-07 14:09:33.675853,0.9190794447925356,-0.0007074110218986,-0.0646927372420867,-0.3146525769542164
2023-12-07 14:09:33.701858,1.81709504458141,-0.0069855683216998,-0.1284031974401755,-0.6033301823429741
2023-12-07 14:09:33.744865,1.982576475674476,-0.0081315510182311,-0.140148300443754,-0.6566564800663117
2023-12-07 14:09:33.803396,-0.1434966784557002,0.0067799166117731,0.0106663447951278,0.0262242761417528
2023-12-07 14:09:33.833483,-3.940123441990867,0.03339698415477,0.2799879365712218,1.245807510298429
2023-12-07 14:09:33.876015,-5.491419499676833,0.0442779593234287,0.3900299766647739,1.744064379017283
2023-12-07 14:09:33.973578,-0.6224425433046454,0.0101657272147542,0.0446288113927907,0.1797402696927554
2023-12-07 14:09:33.984572,1.1487951629439732,-0.0022395088738526,-0.0810231578557682,-0.3893791435992395
2023-12-07 14:09:34.168719,1.9735459566054043,-0.0080132727728342,-0.1395322913162253,-0.6544116878224073
2023-12-07 14:09:34.179904,5.1066389077453085,-0.0299647188799855,-0.3617908984630009,-1.6610136220330218
2023-12-07 14:09:34.386383,2.7455762213576778,-0.01341560258102,-0.1943024013653167,-0.9025307043337848
2023-12-07 14:09:34.411613,-0.9752274953959824,0.0126609746766769,0.0696445141115833,0.2928024584022958
2023-12-07 14:09:34.432771,0.0064765866042501,0.0059152302904538,-0.0007578132640728,-0.0307824556685813
2023-12-07 14:09:34.463394,0.006474281902024,0.0059148185779504,-0.0007586740191674,-0.0307880424444601
2023-12-07 14:09:34.528412,0.0064673691836123,0.0059135836884402,-0.0007612557659646,-0.0308047994068319
2023-12-07 14:09:34.591936,0.0064558526129779,0.0059115263657745,-0.0007655569493166,-0.0308327164619289
2023-12-07 14:09:34.647005,0.0064397391272725,0.0059086478492077,-0.0007715749783513,-0.0308717767935611
2023-12-07 14:09:34.699039,0.0064190384326572,0.0059049498726503,-0.0007793062280332,-0.0309219568732453
2023-12-07 14:09:34.792559,0.0063937629984565,0.0059004346636253,-0.0007887460413465,-0.0309832264743779
2023-12-07 14:09:34.885125,0.0063639280496468,0.0058951049419258,-0.0007998887321007,-0.0310555486904421
2023-12-07 14:09:35.010364,0.0063295515576857,0.0058889639179767,-0.0008127275883554,-0.0311388799572392
2023-12-07 14:09:35.035408,0.0062906542296865,0.0058820152909012,-0.0008272548764638,-0.0312331700791302
2023-12-07 14:09:35.212030,0.0062472594959451,0.0058742632462926,-0.0008434618457307,-0.0313383622592713
2023-12-07 14:09:35.217032,0.0061993934958266,0.0058657124536926,-0.0008613387336839,-0.0314543931338266
2023-12-07 14:09:35.232433,0.0061470850620195,0.0058563680637789,-0.0008808747719544,-0.0315811928101359
2023-12-07 14:09:35.244530,0.0060903657031685,0.0058462357052626,-0.0009020581927634,-0.0317186849088157
2023-12-07 14:09:35.301795,0.0060292695848944,0.0058353214814976,-0.0009248762360103,-0.0318667866097667
2023-12-07 14:09:35.335796,0.0059638335092144,0.0058236319668043,-0.000949315156959,-0.0320254087020622
2023-12-07 14:09:35.495854,0.0058940968923736,0.005811174202509,-0.0009753602345173,-0.0321944556376851
2023-12-07 14:09:35.544120,0.0058201017411025,0.0057979556927033,-0.0010029957801045,-0.0323738255890824
2023-12-07 14:09:35.577968,0.0057418926273132,0.0057839843997232,-0.0010322051471012,-0.0325634105105025
2023-12-07 14:09:35.609971,0.0056595166612514,0.005769268739353,-0.001062970740877,-0.0327630962030778
2023-12-07 14:09:35.725552,0.005573023463119,0.0057538175757565,-0.0010952740293886,-0.0329727623836137
2023-12-07 14:09:35.980580,0.0054824651331843,0.0057376402161368,-0.0011290955543428,-0.0331922827570431
2023-12-07 14:09:36.045600,0.0053878962203991,0.0057207464051304,-0.0011644149429177,-0.0334215250925014
2023-12-07 14:09:36.082382,0.0052893736895401,0.0057031463189373,-0.0012012109200344,-0.0336603513029776
2023-12-07 14:09:36.149997,0.0051869568868961,0.0056848505591914,-0.001239461321172,-0.0339086175284929
2023-12-07 14:09:36.226007,0.0050807075045194,0.0056658701465742,-0.0012791431057192,-0.0341661742227562
2023-12-07 14:09:36.247301,0.0049706895430648,0.0056462165141766,-0.0013202323708529,-0.0344328662432456
2023-12-07 14:09:36.420674,0.0048569692732387,0.0056259015006117,-0.001362704365936,-0.0347085329446602
2023-12-07 14:09:36.459356,0.0047396151958793,0.0056049373428843,-0.001406533507427,-0.0349930082756869
2023-12-07 14:09:36.535482,0.0046186980006946,0.0055833366690189,-0.0014516933942897,-0.0352861208790235
2023-12-07 14:09:36.597224,0.0044942905236816,0.0055611124904538,-0.0014981568238972,-0.035587694194598
2023-12-07 14:09:36.641248,0.0043664677032526,0.0055382781942032,-0.0015458958084166,-0.0358975465659216
2023-12-07 14:09:36.876872,0.004235306535095,0.0055148475347933,-0.0015948815916689,-0.036215491349512
2023-12-07 14:09:36.911067,0.004100886025792,0.0054908346259772,-0.0016450846664498,-0.0365413370273202
2023-12-07 14:09:36.938206,0.0039632871452322,0.0054662539322332,-0.0016964747923044,-0.036874887322094
2023-12-07 14:09:37.083897,0.0038225927778361,0.0054411202600522,-0.0017490210137424,-0.0372159413156083
2023-12-07 14:09:37.111070,0.0036788876726296,0.0054154487490185,-0.001802691678885,-0.03756429356969
2023-12-07 14:09:37.141078,0.0035322583921947,0.0053892548626903,-0.0018574544585301,-0.0379197342499671
2023-12-07 14:09:37.155599,0.0033827932605271,0.0053625543792854,-0.0019132763656272,-0.0382820492522646
2023-12-07 14:09:37.278275,0.0032305823098332,0.0053353633821765,-0.0019701237751467,-0.0386510203315728
2023-12-07 14:09:37.367884,0.0030757172262982,0.0053076982502037,-0.0020279624443348,-0.0390264252335104
2023-12-07 14:09:37.444309,0.0029182912948577,0.0052795756478078,-0.0020867575333398,-0.0394080378282017
2023-12-07 14:09:37.457740,0.0027583993430062,0.0052510125149931,-0.0021464736261987,-0.039795628246489
2023-12-07 14:09:37.527276,0.0025961376836767,0.0052220260571227,-0.00220707475217,-0.0401889630183974
2023-12-07 14:09:37.672379,0.0024316040572256,0.0051926337345549,-0.0022685244074015,-0.040587805213768
2023-12-07 14:09:37.698385,0.0022648975725569,0.0051628532521258,-0.0023307855769186,-0.0409919145849759
2023-12-07 14:09:37.708387,0.0020961186474237,0.0051327025484845,-0.0023938207569209,-0.0414010477116466
2023-12-07 14:09:37.777916,0.0019253689479392,0.0051021997852874,-0.002457591977373,-0.041814958147283
2023-12-07 14:09:37.823926,0.0017527513273378,0.0050713633362586,-0.0025220608248762,-0.0422333965677159
2023-12-07 14:09:37.843022,0.0015783697640195,0.0050402117761217,-0.0025871884658075,-0.0426561109212871
2023-12-07 14:09:37.864593,0.0014023292989175,0.0050087638694119,-0.0026529356697113,-0.0430828465806763
2023-12-07 14:09:37.886596,0.0012247359722253,0.0049770385591723,-0.0027192628329303,-0.0435133464962791
2023-12-07 14:09:37.945754,0.0010456967595225,0.0049450549555433,-0.0027861300024616,-0.0439473513510438
2023-12-07 14:09:37.995288,0.0008653195073358,0.004912832324252,-0.0028534969000226,-0.0443845997166742
2023-12-07 14:09:38.033708,0.0006837128681775,0.0048803900750065,-0.0029213229463132,-0.0448248282111046
2023-12-07 14:09:38.071393,0.0005009862350961,0.0048477477498047,-0.0029895672854592,-0.0452677716571514
2023-12-07 14:09:38.258005,0.0003172496757829,0.0048149250111627,-0.0030581888096226,-0.0457131632422452
2023-12-07 14:09:38.563212,0.0001326138662708,0.004781941630271,-0.0031271461837633,-0.0461607346791495
2023-12-07 14:09:38.621211,-5.280997573244038e-05,0.0047488174750848,-0.0031963978705373,-0.0466102163675665
2023-12-07 14:09:38.663733,-0.0002389101578379,0.0047155724983566,-0.0032659021553183,-0.0470613375565342
2023-12-07 14:09:38.737752,-0.0004255745802547,0.0046822267256174,-0.0033356171713238,-0.047513826507517
2023-12-07 14:09:38.789270,-0.0006126908033144,0.0046488002431137,-0.0034055009248352,-0.0479674106580904
2023-12-07 14:09:38.814272,-0.0008001461152012,0.0046153131857087,-0.0034755113204923,-0.0484218167861227
2023-12-07 14:09:38.831346,-0.0009878275998445,0.0045817857247537,-0.0035456061866508,-0.0488767711743537
2023-12-07 14:09:38.928483,-0.0011756222049357,0.0045482380559374,-0.0036157433007842,-0.0493319997752719
2023-12-07 14:09:38.944489,-0.001363416810027,0.0045146903871211,-0.0036858804149177,-0.04978722837619
2023-12-07 14:09:38.995037,-0.0015510982946703,0.004481162926166,-0.0037559752810761,-0.050242182764421
2023-12-07 14:09:39.051565,-0.001738553606557,0.004447675868761,-0.0038259856767333,-0.0506965888924533
2023-12-07 14:09:39.063568,-0.0019256698296168,0.0044142493862573,-0.0038958694302447,-0.0511501730430267
2023-12-07 14:09:39.209769,-0.0021123342520336,0.0043809036135181,-0.0039655844462502,-0.0516026619940095
2023-12-07 14:09:39.320619,-0.0022984344341391,0.00434765863679,-0.0040350887310311,-0.0520537831829772
2023-12-07 14:09:39.340629,-0.0024838582761424,0.0043145344816038,-0.0041043404178052,-0.0525032648713942
2023-12-07 14:09:39.406152,-0.0026684940856545,0.004281551100712,-0.0041732977919458,-0.0529508363082985
2023-12-07 14:09:39.439161,-0.0028522306449677,0.00424872836207,-0.0042419193161093,-0.0533962278933923
2023-12-07 14:09:39.476677,-0.0030349572780491,0.0042160860368682,-0.0043101636552553,-0.0538391713394391
2023-12-07 14:09:39.659378,-0.0032165639172074,0.0041836437876227,-0.0043779897015459,-0.0542793998338696
2023-12-07 14:09:39.683602,-0.003396941169394,0.0041514211563314,-0.0044453565991069,-0.0547166481994999
2023-12-07 14:09:39.781891,-0.0035759803820969,0.0041194375527025,-0.0045122237686382,-0.0551506530542646
2023-12-07 14:09:39.800880,-0.0037535737087891,0.0040877122424628,-0.0045785509318572,-0.0555811529698674
2023-12-07 14:09:39.929014,-0.0039296141738911,0.004056264335753,-0.0046442981357609,-0.0560078886292566
2023-12-07 14:09:39.969164,-0.0041039957372094,0.0040251127756162,-0.0047094257766923,-0.0564306029828278
2023-12-07 14:09:40.043267,-0.0042766133578108,0.0039942763265873,-0.0047738946241955,-0.0568490414032607
2023-12-07 14:09:40.154362,-0.0044473630572953,0.0039637735633902,-0.0048376658446476,-0.0572629518388971
2023-12-07 14:09:40.375482,-0.0046161419824285,0.0039336228597489,-0.0049007010246499,-0.0576720849655678
2023-12-07 14:09:40.420487,-0.0047828484670972,0.0039038423773198,-0.004962962194167,-0.0580761943367757
2023-12-07 14:09:40.431501,-0.0049473820935483,0.003874450054752,-0.0050244118493985,-0.0584750365321463
2023-12-07 14:09:40.560628,-0.0051096437528778,0.0038454635968816,-0.0050850129753698,-0.0588683713040547
2023-12-07 14:09:40.571627,-0.0052695357047293,0.0038169004640669,-0.0051447290682287,-0.0592559617223421
2023-12-07 14:09:40.646665,-0.0054269616361698,0.0037887778616711,-0.0052035241572337,-0.0596375743170333
2023-12-07 14:09:40.665050,-0.0055818267197048,0.0037611127296982,-0.0052613628264218,-0.0600129792189709
2023-12-07 14:09:40.923375,-0.0057340376703987,0.0037339217325893,-0.0053182102359413,-0.0603819502982792
2023-12-07 14:09:40.947404,-0.0058835028020663,0.0037072212491844,-0.0053740321430384,-0.0607442653005766
2023-12-07 14:09:40.968923,-0.0060301320825012,0.0036810273628563,-0.0054287949226835,-0.0610997059808537
2023-12-07 14:09:40.999938,-0.0061738371877077,0.0036553558518225,-0.005482465587826,-0.0614480582349354
2023-12-07 14:09:41.055738,-0.0063145315551038,0.0036302221796415,-0.0055350118092641,-0.0617891122284497
2023-12-07 14:09:41.099498,-0.0064521304356636,0.0036056414858975,-0.0055864019351187,-0.0621226625232235
2023-12-07 14:09:41.202047,-0.0065865509449666,0.0035816285770814,-0.0056366050098996,-0.0624485082010317
2023-12-07 14:09:41.232758,-0.0067177121131242,0.0035581979176715,-0.0056855907931519,-0.0627664529846221
2023-12-07 14:09:41.364247,-0.0068455349335532,0.0035353636214209,-0.0057333297776713,-0.0630763053559457
2023-12-07 14:09:41.393253,-0.0069699424105662,0.0035131394428558,-0.0057797932072787,-0.0633778786715202
2023-12-07 14:09:41.529820,-0.0070908596057509,0.0034915387689904,-0.0058249530941415,-0.0636709912748568
2023-12-07 14:09:41.585437,-0.0072082136831103,0.003470574611263,-0.0058687822356325,-0.0639554666058836
2023-12-07 14:09:41.744769,-0.0073219339529364,0.0034502595976982,-0.0059112542307156,-0.0642311333072982
2023-12-07 14:09:41.758309,-0.0074319519143909,0.0034306059653005,-0.0059523434958493,-0.0644978253277875
2023-12-07 14:09:41.809037,-0.0075382012967677,0.0034116255526834,-0.0059920252803965,-0.0647553820220508
2023-12-07 14:09:41.828318,-0.0076406180994117,0.0033933297929374,-0.0060302756815341,-0.0650036482475661
2023-12-07 14:09:41.846356,-0.0077391406302706,0.0033757297067444,-0.0060670716586508,-0.0652424744580423
2023-12-07 14:09:41.944920,-0.0078337095430559,0.0033588358957379,-0.0061023910472257,-0.0654717167935006
2023-12-07 14:09:42.030476,-0.0079242678729906,0.0033426585361182,-0.0061362125721799,-0.06569123716693
2023-12-07 14:09:42.077010,-0.008010761071123,0.0033272073725217,-0.0061685158606915,-0.0659009033474659
2023-12-07 14:09:42.359184,-0.0080931370371847,0.0033124917121516,-0.0061992814544673,-0.0661005890400412
2023-12-07 14:09:42.394341,-0.008171346150974,0.0032985204191714,-0.006228490821464,-0.0662901739614613
2023-12-07 14:09:42.467543,-0.0082453413022452,0.0032853019093657,-0.0062561263670512,-0.0664695439128587
2023-12-07 14:09:42.494017,-0.008315077919086,0.0032728441450705,-0.0062821714446095,-0.0666385908484815
2023-12-07 14:09:42.573748,-0.008380513994766,0.0032611546303771,-0.0063066103655582,-0.0667972129407771
2023-12-07 14:09:42.592187,-0.0084416101130401,0.0032502404066121,-0.006329428408805,-0.0669453146417281
2023-12-07 14:09:42.701493,-0.0084983294718911,0.0032401080480958,-0.0063506118296141,-0.0670828067404078
2023-12-07 14:09:42.758617,-0.0085506379056982,0.0032307636581821,-0.0063701478678846,-0.0672096064167171
2023-12-07 14:09:42.825625,-0.0085985039058167,0.0032222128655821,-0.0063880247558378,-0.0673256372912724
2023-12-07 14:09:42.863171,-0.0086418986395581,0.0032144608209735,-0.0064042317251047,-0.0674308294714135
2023-12-07 14:09:42.931222,-0.0086807959675573,0.0032075121938981,-0.0064187590132131,-0.0675251195933045
2023-12-07 14:09:43.147397,-0.0087151724595184,0.003201371169949,-0.0064315978694678,-0.0676084508601016
2023-12-07 14:09:43.174074,-0.0087450074083281,0.0031960414482494,-0.006442740560222,-0.0676807730761658
2023-12-07 14:09:43.238080,-0.0087702828425288,0.0031915262392244,-0.0064521803735353,-0.0677420426772984
2023-12-07 14:09:43.255622,-0.008790983537144,0.0031878282626671,-0.0064599116232172,-0.0677922227569826
2023-12-07 14:09:43.320201,-0.0088070970228495,0.0031849497461002,-0.0064659296522519,-0.0678312830886148
2023-12-07 14:09:43.440844,-0.0088186135934839,0.0031828924234345,-0.0064702308356039,-0.0678592001437118
2023-12-07 14:09:43.455411,-0.0088255263118956,0.0031816575339243,-0.0064728125824011,-0.0678759571060836
2023-12-07 14:09:43.467408,-10.32784914464755,0.0391332730810846,-0.0835707535053809,1.2342341089673647
2023-12-07 14:09:43.490425,-32.87427536169105,0.1194640141283298,-0.2526136677552577,4.072587286900416
2023-12-07 14:09:43.499420,-32.871597546197854,0.1194515040083279,-0.2525896535957176,4.072283736619301
2023-12-07 14:09:43.513424,-17.952890867849852,0.0662919899448778,-0.1407285057379088,2.19424192492334
2023-12-07 14:09:43.590010,-19.459557087793165,0.0716532412678413,-0.1520157188493412,2.383992510772803
2023-12-07 14:09:43.677551,-11.087018796745491,0.0418134360944267,-0.0892299336408055,1.3300844048771208
2023-12-07 14:09:43.793146,-8.42876899251758,0.0323313753294218,-0.0692850282654083,0.995563287197821
2023-12-07 14:09:43.932716,-19.342068984402367,0.0712020743739777,-0.1510916631423832,2.3695700894577723
2023-12-07 14:09:44.014642,-6.888663519754187,0.02681647992414,-0.0577013538955236,0.8019929986429412
2023-12-07 14:09:44.045955,10.350799876933127,-0.0346235290814381,0.0715755080872621,-1.368073119445154
2023-12-07 14:09:44.061487,32.46724161919222,-0.113441887231054,0.2374205949255003,-4.152074238079704
2023-12-07 14:09:44.077488,40.341591812287184,-0.1415183426611583,0.2964866331922407,-5.143134184895108
2023-12-07 14:09:44.265622,-4.030407398417676,0.0165542892497605,-0.0361673559495876,0.4430563882481798
2023-12-07 14:09:44.350656,-25.53631274822745,0.0931543365603872,-0.1973778640016858,3.150683815068409
2023-12-07 14:09:44.513752,-17.09985566587759,0.0630694411403672,-0.1340898347323887,2.088925143610707
2023-12-07 14:09:44.533765,-31.837748237887347,0.1155516707561226,-0.2445514832959417,3.944578042572086
2023-12-07 14:09:44.544879,-27.10044452356492,0.0986429529283194,-0.2089933285910454,3.348543203145372
2023-12-07 14:09:44.583623,-10.384018127542973,0.0390514217633937,-0.0836180030864866,1.2444919491520792
2023-12-07 14:09:44.596610,-5.7913453001260855,0.0226543770077052,-0.0491394085444694,0.666705643304732
2023-12-07 14:09:44.624625,11.020141483366835,-0.0372794491112303,0.0769534153864929,-1.449271963213052
2023-12-07 14:09:44.638620,18.094190971041936,-0.0625210666651877,0.1300411131412739,-2.3393955248717013
2023-12-07 14:09:44.681173,11.515137389088098,-0.0391191420334993,0.0807655347454258,-1.5107269247421404
2023-12-07 14:09:44.715194,18.968157492341224,-0.0657144807054877,0.1366992042746629,-2.448519430973456
2023-12-07 14:09:44.916334,19.368277854813872,-0.0671824066747553,0.1397552600814353,-2.498411832381445
2023-12-07 14:09:45.226006,2.9211314243182684,-0.008626079691894,0.0164993604324641,-0.4274035412829645
2023-12-07 14:09:45.254217,0.8674488399683226,-0.0013545536947293,0.0011621684724196,-0.1683521854984663
2023-12-07 14:09:45.263867,3.752987506588685,-0.0116828319891609,0.0228594590826553,-0.5310750513763622
2023-12-07 14:09:45.270978,12.106344060385473,-0.0414942481280041,0.0855544039804886,-1.5821168439237716
2023-12-07 14:09:45.355725,35.83579193579265,-0.1260914298968222,0.2635352972943344,-4.568818306427873
2023-12-07 14:09:45.472156,3.352881605694889,-0.0104084658308781,0.0200600899045493,-0.4789975254831121
2023-12-07 14:09:45.509173,-52.27171354784268,0.1877256051552112,-0.3969203711865213,6.524118565704109
2023-12-07 14:09:45.617743,-16.221841340935768,0.0592269027619936,-0.1265598248218835,1.9864647882536808
2023-12-07 14:09:45.769841,27.213603970238427,-0.0955876421355095,0.199176742108451,-3.480933538791701
2023-12-07 14:09:45.777005,2.7078475624533063,-0.0083326580544595,0.0155187845256214,-0.3952813481564698
2023-12-07 14:09:45.918224,1.0598900317042217,-0.0025201745663887,0.0032414135414996,-0.1871540417085463
2023-12-07 14:09:45.961971,29.59445417483176,-0.1042477582160437,0.2172624696036199,-3.778652406145205
2023-12-07 14:09:45.977341,50.97680153752992,-0.1804936627801986,0.3776607348907869,-6.469752342297181
2023-12-07 14:09:45.994413,76.71852962584408,-0.2722730676408496,0.5707455858754923,-9.709635185360616
2023-12-07 14:09:46.031880,54.24797204603401,-0.1922758520429533,0.4023553160704362,-6.880118651641774
2023-12-07 14:09:46.098073,-15.530040366212203,0.0562741579988654,-0.1207260604424221,1.904888775802328
2023-12-07 14:09:46.107420,-29.26905312591752,0.1051590191323306,-0.2236475695590263,3.635228036367317
2023-12-07 14:09:46.138127,-9.494474319244713,0.0346356159115938,-0.0752959055683769,1.1465947205980815
2023-12-07 14:09:46.161989,-33.08226923635107,0.1186090107826687,-0.2520568427358712,4.116809509990558
2023-12-07 14:09:46.247768,-45.05102940092409,0.161183377976134,-0.3417014823540327,5.624329744326151
2023-12-07 14:09:46.314636,-38.34679743432213,0.1372258802748011,-0.291342084936439,4.781140891758093
2023-12-07 14:09:46.344645,-52.32199156006676,0.1869471569854924,-0.3960276449943753,6.541270217404795
2023-12-07 14:09:46.392161,-18.147180651295702,0.0651116076127142,-0.1397022445464837,2.239864425455604
2023-12-07 14:09:46.458702,28.934586130578857,-0.1027115933105663,0.2133955517327982,-3.686372671015171
2023-12-07 14:09:46.555721,11.702325885362988,-0.0413881002896574,0.0842931588069755,-1.5161865849905451
2023-12-07 14:09:46.584260,-16.959737519296326,0.0606584226762837,-0.1305043934776161,2.092891988647871
2023-12-07 14:09:46.627259,-65.45627552612159,0.2333734230860502,-0.4940120823474585,8.198916337063343
2023-12-07 14:09:46.681810,-98.97221502401946,0.3527126717839501,-0.7452002573448868,12.419059019857832
2023-12-07 14:09:46.863881,-62.21478965464084,0.2216709958198913,-0.469505587022884,7.792580862516299
2023-12-07 14:09:46.893885,-44.66843857532689,0.1590767925891397,-0.3378472259287202,5.584567820393677
2023-12-07 14:09:47.027695,-30.51485839904591,0.1085703256172213,-0.2316258251046024,3.803672520926366
2023-12-07 14:09:47.051682,-8.979950348402863,0.0317640945163935,-0.070061496181075,1.093556330032297
2023-12-07 14:09:47.093220,-40.49761692647383,0.1439809631937683,-0.306263908869284,5.062168702970192
2023-12-07 14:09:47.131221,-11.963286964645029,0.0422353398520825,-0.0922195829370952,1.4709131256940635
2023-12-07 14:09:47.258282,64.57987717831507,-0.2305635735572655,0.4817765285237207,-8.164111978241142
2023-12-07 14:09:47.319538,51.85023823646047,-0.1852884745985245,0.3864406959964933,-6.560689926157567
2023-12-07 14:09:47.412075,29.152040573669787,-0.1044961674824346,0.2163648563332026,-3.7023354833994855
2023-12-07 14:09:47.437079,42.13553555210437,-0.150836048943786,0.3138165568636787,-5.33590344463566
2023-12-07 14:09:47.639247,36.97775344495393,-0.1325396597778322,0.2752522974810554,-4.685686600081021
2023-12-07 14:09:47.773888,30.736383412121093,-0.1103826009618984,0.2285638512708589,-3.899057100412468
2023-12-07 14:09:47.861835,13.341416245716175,-0.0484859106725561,0.0982501895549405,-1.7083143651745023
2023-12-07 14:09:47.916842,0.8266897798953375,-0.0039772613661468,0.0045266511711489,-0.1319391562631376
2023-12-07 14:09:48.036377,22.66941762620096,-0.0818823664579723,0.1684017136309683,-2.880782351835919
2023-12-07 14:09:48.048380,32.9204826695638,-0.118486889396786,0.2453669234353247,-4.170366408141054
2023-12-07 14:09:48.061896,16.603552331208792,-0.0604308962520488,0.1231355710588424,-2.115339702307036
2023-12-07 14:09:48.106907,-16.427093566367127,0.0571753805805301,-0.1244088973932621,2.0437539974600147
2023-12-07 14:09:48.131912,-40.71084660841009,0.1436171804914423,-0.3063729283756929,5.101709326514634
2023-12-07 14:09:48.146940,-36.394608225662864,0.1281590054271383,-0.2739058691909802,4.559243470357163
2023-12-07 14:09:48.390021,-60.28174103366355,0.2131882972895327,-0.4528970318093858,7.567261655227165
2023-12-07 14:09:48.417026,-100.05693793635656,0.3548263122815055,-0.7510111557294891,12.575404410036954
2023-12-07 14:09:48.470594,-100.750091884153,0.3572174971921019,-0.7561040840719249,12.663551727617213
2023-12-07 14:09:48.575122,-99.78781116473716,0.3537109365048594,-0.7487858529172755,12.543292965068607
2023-12-07 14:09:48.688662,-80.90287061980845,0.286347409399438,-0.6070912750373154,10.166766534117
2023-12-07 14:09:48.744703,-41.932379890110525,0.1474206979332293,-0.3148039119683234,5.261688288288898
2023-12-07 14:09:48.867727,-61.26098758611796,0.2162112294786708,-0.4596210589296043,7.695805141812512
2023-12-07 14:09:48.944755,-85.01668922774411,0.3007759309454703,-0.637631697657174,10.687235893416377
2023-12-07 14:09:49.014270,-75.47941801460323,0.266720233425527,-0.5660256787606941,9.487447004093124
2023-12-07 14:09:49.044281,-81.41047970989831,0.2877781503000036,-0.6103961344496988,10.23493904209474
2023-12-07 14:09:49.223904,-61.48636539162683,0.2167162369871612,-0.4609157238734105,7.72754556186291
2023-12-07 14:09:49.368509,-33.946309617361784,0.1185199712621565,-0.2543351051984717,4.261380970062173
2023-12-07 14:09:49.488041,-37.73944774405612,0.1319631178837282,-0.2826796182389354,4.739703733113144
2023-12-07 14:09:49.498046,-34.176471438804136,0.1191977489171289,-0.2558721189998026,4.291963709532565
2023-12-07 14:09:49.540055,-33.252880644924566,0.1158373476052006,-0.2488549870880503,4.176481667375742
2023-12-07 14:09:49.563585,-31.463092268089525,0.1093917477102926,-0.2353447963405824,3.9519435687436473
2023-12-07 14:09:49.615595,-32.84932424859564,0.1142632005579299,-0.2456485602303672,4.1272188132280965
2023-12-07 14:09:49.680125,-49.44808751381876,0.1733372023591813,-0.3700113527007792,6.217568563393719
2023-12-07 14:09:49.726135,-51.36589115042857,0.180104857043008,-0.3843036016308028,6.459737397547791
2023-12-07 14:09:49.828891,-39.85800356092388,0.1390386592994933,-0.2979368674974383,5.011749072828491
2023-12-07 14:09:49.863407,-7.076207241015229,0.0221758615400127,-0.0520683567170592,0.885600660098064
2023-12-07 14:09:49.946434,-4.804701661570439,0.0140208812832979,-0.0349556588295318,0.6003411963209906
2023-12-07 14:09:50.014981,-44.19482677514923,0.1543053935549045,-0.330207179610153,5.5597987939849896
2023-12-07 14:09:50.055256,-36.10608611273366,0.1254265333965575,-0.2694826210597432,4.542185086714608
2023-12-07 14:09:50.120777,-42.303434345091176,0.1474496219179273,-0.3158713425014864,5.323014189347441
2023-12-07 14:09:50.146792,-62.96172057431563,0.2209976720539389,-0.4706843397757903,7.924297248202395
2023-12-07 14:09:50.327709,-35.54500207787785,0.1232584423464909,-0.265051780900267,4.473460620746937
2023-12-07 14:09:50.472841,-36.23494759705539,0.1256632454890912,-0.270153867818555,4.560920932611429
2023-12-07 14:09:50.490843,-32.54852994941912,0.1124767959773987,-0.2424456945633969,4.097429300929392
2023-12-07 14:09:50.518848,-10.876429359203197,0.0352098343976687,-0.0798899811783105,1.3697247690984893
2023-12-07 14:09:50.557070,-25.0203519827665,0.0855550409216391,-0.1858707779582137,3.15083790604451
2023-12-07 14:09:50.599588,-31.06112445495236,0.107030739814111,-0.2310994538132731,3.9118374198667856
2023-12-07 14:09:50.650604,-35.52037654877937,0.1228731834738154,-0.2644726588382543,4.473722975769166
2023-12-07 14:09:50.662117,-26.85018999972413,0.0919377738752956,-0.1994086849642103,3.3827409722657107
2023-12-07 14:09:50.704123,29.37775004285792,-0.1084417378420594,0.2222223823608387,-3.695247291908104
2023-12-07 14:09:50.758436,85.28585871136491,-0.3076800090037191,0.6414532282895055,-10.732991568183987
2023-12-07 14:09:51.765110,61.07191968339044,-0.2217708646709045,0.4603890822751349,-7.680616392985331
2023-12-07 14:09:51.796435,-12.393426532055145,0.0399675349759249,-0.0904055807767613,1.5680129644701462
2023-12-07 14:09:51.812446,-17.576278025603333,0.0584209473633414,-0.1292475689965656,2.22062062175684
2023-12-07 14:09:51.902982,44.35485824094712,-0.1622472909318517,0.3351021022437547,-5.575691597688465
2023-12-07 14:09:51.982514,98.22724788828648,-0.3542006738240606,0.7390278587903644,-12.35752027984741
2023-12-07 14:09:51.995519,93.77242528676864,-0.3383352963458486,0.7056365298734761,-11.796629896906556
2023-12-07 14:09:52.055545,88.22454833585556,-0.318573449197827,0.6640472917508713,-11.098158555232692
2023-12-07 14:09:52.485000,111.5928627578919,-0.4021973983706257,0.8401266600075552,-14.031913459458655
2023-12-07 14:09:52.552255,105.82353438598436,-0.3816404869821795,0.7968710765391684,-13.305611744746676
2023-12-07 14:09:52.581325,103.87073473884566,-0.3746809356206019,0.7822307018790661,-13.059762810158436
2023-12-07 14:09:52.606785,65.81777088591299,-0.2390976675426262,0.496925887801568,-8.269303065566879
2023-12-07 14:09:52.624781,56.54674601027755,-0.2060622060286265,0.4274170978925752,-7.102161048947007
2023-12-07 14:09:52.750376,52.56226348160895,-0.1918616903982594,0.3975450977625583,-6.600530061251894
2023-12-07 14:09:52.860445,89.85158163492386,-0.3247168320843369,0.6771281803059649,-11.294802008402446
2023-12-07 14:09:53.069532,80.38160726549789,-0.2909703521770796,0.60612887144793,-10.102598597313373
2023-12-07 14:09:53.094559,14.07508841051722,-0.0547175351456628,0.1089919018664347,-1.7553069412405906
2023-12-07 14:09:53.202699,53.26235393013754,-0.1943328101067488,0.402806162978672,-6.688493406918711
2023-12-07 14:09:53.256709,38.47096692715607,-0.1416242745940333,0.2919101080194263,-4.826368205147789
2023-12-07 14:09:53.288860,27.19395777287184,-0.1014365770600579,0.2073638402713261,-3.406658567181408
2023-12-07 14:09:53.329330,86.39060907778509,-0.3123421253164912,0.6512016950479471,-10.85878663109522
2023-12-07 14:09:53.390882,-19.465979457566764,0.064829035516396,-0.1424642976207299,2.467440658004108
2023-12-07 14:09:53.426886,60.10341681774149,-0.2186621474711497,0.4541210955272081,-7.549377199763807
2023-12-07 14:09:53.870669,29.680368462405035,-0.1101749632863692,0.2260684780730879,-3.718787863641474
2023-12-07 14:09:54.023203,-60.59467550749282,0.2114859172006172,-0.4507701466037684,7.645941334341058
2023-12-07 14:09:54.054592,-2.9785619721339267,0.0062189989650075,-0.0187787791419806,0.3928383187728728
2023-12-07 14:09:55.528401,-25.35071359322629,0.0863673673421512,-0.1862894959431873,3.212441809520619
2023-12-07 14:09:55.550482,30.006742808349376,-0.1108418646647419,0.2287726430296208,-3.756246943835924
2023-12-07 14:09:55.562610,-12.350853640997904,0.0401028272917286,-0.0887940414149644,1.576295069253635
2023-12-07 14:09:55.590895,-7.6306166030274705,0.023311987148884,-0.0533895035159186,0.9822685570415284
2023-12-07 14:09:55.607954,-39.14665658202792,0.135629393128357,-0.2896701499997585,4.949984759875707
2023-12-07 14:09:55.730473,-37.2462729030527,0.1288861189827554,-0.27540746332105,4.710950353241958
2023-12-07 14:09:56.095616,-18.48010615902561,0.0620512101283834,-0.1346916390015759,2.348705094409786
2023-12-07 14:09:56.111055,-35.876657884481936,0.1240624121262165,-0.2651095119783681,4.538941989162964
2023-12-07 14:09:56.211640,-12.556277138717046,0.041001554493749,-0.0902477372438456,1.6033757893801135
2023-12-07 14:09:56.233764,-29.451763045526565,0.1012279274350334,-0.2169085867709717,3.7305373556465606
2023-12-07 14:09:56.313138,-71.25252572648402,0.2501906870840201,-0.5302992946593029,8.99299514856262
2023-12-07 14:09:56.455734,-41.085867261390746,0.1427374875444551,-0.3041065214797247,5.195563712859761
2023-12-07 14:09:56.472551,-18.16358745119944,0.0610957885811569,-0.132229164054611,2.3101194090183967
2023-12-07 14:09:56.476599,-30.538554446064776,0.1052164666436672,-0.2249965919545201,3.868203331371204
2023-12-07 14:09:56.497612,-44.83591590361506,0.1561866602302057,-0.3321773117691542,5.668296054217624
2023-12-07 14:09:56.653656,-31.17387189428901,0.1075390698241476,-0.2297293618393359,3.948614242587148
2023-12-07 14:09:56.798753,17.509385419276654,-0.0658871723476912,0.1352939034054088,-2.1798445757581377
2023-12-07 14:09:56.840768,30.062014867234225,-0.1105818156573167,0.2294239834089308,-3.759862366379185
2023-12-07 14:09:56.877304,19.20767886791112,-0.0718786181117403,0.1480578801627151,-2.393205542927934
2023-12-07 14:09:56.906317,26.519151939192508,-0.097899207096343,0.2028918797359278,-3.313419918043921
2023-12-07 14:09:56.921313,25.602096979037963,-0.0946019654475595,0.1960316251668257,-3.197754843061442
2023-12-07 14:09:56.974468,21.01207057468781,-0.0782181196906688,0.1616328768258051,-2.6197038902330965
2023-12-07 14:09:57.063022,12.232508097390904,-0.0469071951818847,0.095822627193512,-1.514237502342804
2023-12-07 14:09:57.137692,1.5177373408103474,-0.0087012612569961,0.0155029291879675,-0.1651503764137778
2023-12-07 14:09:57.343121,4.794413441630179,-0.0203461705777833,0.0400855631087166,-0.5774297578371158
2023-12-07 14:09:57.493183,13.853339896968212,-0.0525930055942129,0.1080211964089903,-1.717630081308863
2023-12-07 14:09:57.531193,24.84630573535125,-0.0917308108338439,0.1904574490784247,-3.101304910075088
2023-12-07 14:09:57.543204,19.780008942756147,-0.0736504152220517,0.1524876176810615,-2.463299615189066
2023-12-07 14:09:57.549213,-0.5524117058268645,-0.001177748243488,5.833528197450405e-05,0.0965384043557095
2023-12-07 14:09:57.708520,-7.184099403335293,0.0224797848926982,-0.0496483197230736,0.931606883555796
2023-12-07 14:09:57.724530,-4.48577908607259,0.0128948297186986,-0.0294023311841378,0.5921309044691582
2023-12-07 14:09:57.765124,-0.5545674752575881,-0.0010830301637668,8.729864475505527e-05,0.0974464489905155
2023-12-07 14:09:57.803119,5.2741522364979385,-0.0218218068621131,0.0438035959063912,-0.636114406066226
2023-12-07 14:09:57.955481,6.302931360730651,-0.0254588601473836,0.0515317182977242,-0.7654181720228722
2023-12-07 14:09:57.966006,2.697954041027657,-0.0125863125109447,0.0245176402178361,-0.3113856925145946
2023-12-07 14:09:58.002829,-1.0468836552286325,0.0007843036875333,-0.0035451837579357,0.1602518346905753
2023-12-07 14:09:58.147397,-0.6806706191446562,-0.0004928011336304,-0.000785104528323,0.1143522918194236
2023-12-07 14:09:58.250573,3.773921933466765,-0.0163368673058967,0.0326278894078213,-0.4462303915477837
2023-12-07 14:09:58.266395,6.418525555561505,-0.0257323347376222,0.0524701451698229,-0.7789579544847538
2023-12-07 14:09:58.275532,1.5245676893309472,-0.0082686169829078,0.0157910726953619,-0.1626675313523397
2023-12-07 14:09:58.291841,2.5720354196526856,-0.011974215309321,0.0236582994562045,-0.2943383091834835
2023-12-07 14:09:58.301008,13.65058899256918,-0.0514203900608909,0.1067344795343383,-1.688812725534814
2023-12-07 14:09:58.315177,6.645956450158502,-0.026437484413055,0.0542298627367825,-0.8068196224611641
2023-12-07 14:09:58.632535,2.3589082889289035,-0.0111375653335019,0.0221004285513752,-0.2669426424033196
2023-12-07 14:09:58.676515,23.611443748019425,-0.0868342312845172,0.1814565339006628,-2.942215437718489
2023-12-07 14:09:58.721742,28.770306532968377,-0.1051903944823634,0.2201484070625003,-3.5914784602914214
2023-12-07 14:09:58.742754,26.67950622108649,-0.0977168107925379,0.2044849421169237,-3.328093355380497
2023-12-07 14:09:58.783537,38.24430947363925,-0.1388978605612611,0.2912055901515346,-4.783798652627732
2023-12-07 14:09:58.805924,37.15940215290351,-0.1350091071097046,0.2830834552364648,-4.647050668602764
2023-12-07 14:09:58.855753,34.5998751011866,-0.1258668254800437,0.2639049613954384,-4.324668009026381
2023-12-07 14:09:58.919280,34.263804670707884,-0.1246470809942248,0.2613968219891595,-4.282197078430769
2023-12-07 14:09:59.084529,23.802362245708423,-0.0873516601308217,0.1829723750404636,-2.9650590609924508
2023-12-07 14:09:59.119820,18.94345408328485,-0.0700182789758616,0.1465532624735709,-2.353220914117765
2023-12-07 14:09:59.134294,15.58657558053971,-0.0580370681176857,0.1213955085534886,-1.9304752281500173
2023-12-07 14:09:59.292683,10.020030119257282,-0.0381834602363407,0.0796702668951392,-1.2295611522787369
2023-12-07 14:09:59.369177,7.096491199753504,-0.0277472880572927,0.0577609664771543,-0.8613759011835675
2023-12-07 14:09:59.423308,4.291301171823571,-0.0177333410357056,0.0367387120724095,-0.5080935015755803
2023-12-07 14:09:59.493139,8.672096647291212,-0.0333232483262975,0.0695938543402534,-1.059450157362411
2023-12-07 14:09:59.576388,8.543019369122662,-0.0328452932258443,0.0686354471243622,-1.043068675337977
2023-12-07 14:09:59.633447,0.9778571655715128,-0.0058735465231478,0.0119238980245717,-0.0905718676902103
2023-12-07 14:09:59.705187,2.638305855956896,-0.0117727647716323,0.0243820368203825,-0.2994802971628638
2023-12-07 14:09:59.747031,3.8625868253634215,-0.0161185490061829,0.0335696462081277,-0.45348455835576
2023-12-07 14:09:59.762507,2.77613278883002,-0.0122319243639425,0.0254319536573696,-0.3165977426886681
2023-12-07 14:10:00.021754,5.8188325610555935,-0.0230578854670794,0.0482527051112143,-0.6995296368467327
2023-12-07 14:10:00.038590,6.324593969271361,-0.0248455054947761,0.0520521613314713,-0.763094125476649
2023-12-07 14:10:00.085530,6.135165080518871,-0.0241568446221358,0.050639019703204,-0.7391466810289998
2023-12-07 14:10:00.130445,2.375109941624087,-0.0107468840300849,0.022454389271944,-0.2657022526248305
2023-12-07 14:10:00.148423,-0.801528440357032,0.000583731612494,-0.0013563551044007,0.1342917142351021
2023-12-07 14:10:00.231717,4.891290888233384,-0.0196877333624111,0.0413322553984929,-0.5822843852263431
2023-12-07 14:10:00.257165,4.884743237748857,-0.0196533297828438,0.0412889056029536,-0.5813791009829671
2023-12-07 14:10:00.509488,-0.2725325291770436,-0.001267835736494,0.0026270702330481,0.0679400435168006
2023-12-07 14:10:00.542176,-0.0698132226735472,-0.0019804114895862,0.0041520102552619,0.0424909296645833
2023-12-07 14:10:00.586330,0.3756054035442435,-0.0035584072151113,0.0074962538518713,-0.0135163885801095
2023-12-07 14:10:00.608121,3.144600196157301,-0.0134158831181465,0.0282613935265653,-0.3620409892643284
2023-12-07 14:10:00.661852,5.1373425079643615,-0.0205083177406668,0.0432061319480596,-0.612849276089227
2023-12-07 14:10:00.669464,1.1340518497670862,-0.0062379122668346,0.0131946077582807,-0.1088295079723323
2023-12-07 14:10:00.694888,-0.0822379632834616,-0.0018981584648856,0.0040785483084452,0.0443329118649296
2023-12-07 14:10:00.861203,0.8205159655959332,-0.0051091640222645,0.0108498722964934,-0.0692737419317512
2023-12-07 14:10:01.027232,-1.2975918728845532,0.0024422808141689,-0.0050284098155121,0.1974069177389874
2023-12-07 14:10:01.051845,-2.5614672266356413,0.0069494161466614,-0.0145023685012643,0.356543999352699
2023-12-07 14:10:01.206744,0.0521535126575974,-0.0023594896971379,0.0050952352061102,0.0275425313206441
2023-12-07 14:10:01.218718,1.7202626568943389,-0.008300315928321,0.0176033875417027,-0.1824349683795939
2023-12-07 14:10:01.285732,-1.3832258234766428,0.0027590792357255,-0.0056643989425399,0.2082727744965111
2023-12-07 14:10:01.334470,-0.4309503066295415,-0.0006327305679447,0.0014759571274244,0.0884000057271302
2023-12-07 14:10:01.378400,-0.2615163637325973,-0.0007692345355062,0.0025812463226459,0.0670186444731851
2023-12-07 14:10:01.481545,-0.2614700321348646,-0.000768957189383,0.0025811177583059,0.0670100407457406
2023-12-07 14:10:01.501153,-0.2613310652500889,-0.0007681253180763,0.0025807321427285,0.0669842347459707
2023-12-07 14:10:01.575764,-0.261099546786725,-0.0007667394226743,0.0025800897081939,0.0669412420184449
2023-12-07 14:10:01.750715,-0.2607756162028385,-0.0007648003379885,0.0025791908416808,0.0668810884603745
2023-12-07 14:10:01.768068,-0.2603594686221004,-0.0007623092320511,0.0025780360846327,0.0668038103060136
2023-12-07 14:10:01.818207,-0.2598513547162525,-0.0007592676054111,0.0025766261326321,0.0667094541048329
2023-12-07 14:10:01.826898,-0.2592515805541122,-0.0007556772902307,0.0025749618349813,0.0665980766934796
2023-12-07 14:10:01.840958,-0.2585605074172077,-0.0007515404491815,0.002573044194191,0.0664697451615418
2023-12-07 14:10:01.856681,-0.2577785515821559,-0.0007468595741418,0.0025708743653763,0.0663245368111357
2023-12-07 14:10:02.088577,-0.2569061840699125,-0.0007416374846958,0.002568453655561,0.0661625391103417
2023-12-07 14:10:02.137625,-0.2559439303620471,-0.0007358773264349,0.0025657835228902,0.0659838496405175
2023-12-07 14:10:02.354937,-0.2548923700842121,-0.0007295825690629,0.0025628655757518,0.065788576037518
2023-12-07 14:10:02.378979,-0.2537521366569987,-0.0007227570043065,0.0025597015718083,0.0655768359268599
2023-12-07 14:10:02.397762,-0.2525239169143873,-0.0007154047436305,0.0025562934169371,0.0653487568528684
2023-12-07 14:10:02.412280,-0.2512084506900248,-0.0007075302157619,0.0025526431640835,0.0651044762018492
2023-12-07 14:10:02.460497,-0.2498065303715763,-0.0006991381640218,0.0025487530120231,0.0648441411193323
2023-12-07 14:10:02.604553,-0.2483190004234204,-0.0006902336434684,0.0025446253040382,0.0645679084214368
2023-12-07 14:10:02.627225,-0.2467467568779756,-0.0006808220178519,0.0025402625265057,0.0642759445004109
2023-12-07 14:10:02.800749,-0.2450907467959636,-0.0006709089563837,0.0025356673073997,0.0639684252244035
2023-12-07 14:10:02.820414,-0.2433519676959357,-0.0006605004303213,0.0025308424147082,0.0636455358315274
2023-12-07 14:10:02.842985,-0.2415314669534047,-0.0006496027093716,0.0025257907547664,0.0633074708182794
2023-12-07 14:10:02.937689,-0.2396303411699447,-0.0006382223579142,0.0025205153705051,0.0629544338223824
2023-12-07 14:10:02.974553,-0.2376497355126403,-0.0006263662310473,0.0025150194396186,0.0625866375001218
2023-12-07 14:10:02.997454,-0.2355908430242797,-0.0006140414704584,0.0025093062726503,0.0622043033982493
2023-12-07 14:10:03.034941,-0.2334549039047109,-0.0006012555001224,0.0025033793109982,0.0618076618205315
2023-12-07 14:10:03.182288,-0.2312432047637918,-0.0005880160218297,0.0024972421248424,0.0613969516890235
2023-12-07 14:10:03.202756,-0.2289570778463839,-0.0005743310105471,0.0024908984109943,0.060972420400151
2023-12-07 14:10:03.215354,-0.2265979002298586,-0.0005602087096136,0.0024843519906701,0.0605343236756882
