Timestamp,TP9,AF7,AF8,TP10
2023-12-07 13:01:35.611726,0.7096125863489591,1.967061860645248,-0.2058520462145338,-0.7026426690958789
2023-12-07 13:01:36.058301,-2.218717623417291,-1.5848762497371904,0.8468833973627423,0.4687581273352752
2023-12-07 13:01:36.532796,-2.774549743185207,6.2389427640948245,-1.0544880920840185,-1.4330220327317045
2023-12-07 13:01:36.606605,6.192487025489114,-8.355516879666617,0.1548576209902704,0.9407563821910604
2023-12-07 13:01:36.737473,-7.607848245487418,-9.185309561901768,4.786541967031343,3.0008431327532463
2023-12-07 13:01:37.050738,-4.646186810569303,4.001749140707044,1.57347899917431,-0.2075224609224384
2023-12-07 13:01:37.305212,-6.201511547471596,8.791569994124549,0.6588494513318546,-0.9662799771498954
2023-12-07 13:01:37.942893,-8.797402315193581,-1.7333599032600386,2.781456131948461,0.8263158048849836
2023-12-07 13:01:38.445812,2.070188938088549,-5.7557111932046,1.1684366124994747,1.4310170070955115
2023-12-07 13:01:39.016552,-11.970333846851682,4.851402746024382,2.535686960424789,0.7525643126733593
2023-12-07 13:01:39.226410,15.019599964315752,-0.511252356743694,-4.32268146662887,-1.1337779134365638
2023-12-07 13:01:39.496330,8.564817890193265,0.2276486035903134,-2.2144601848549264,-0.8399321558631951
2023-12-07 13:01:39.699996,-1.0570260396110842,1.993342178441103,0.4760386153106565,-0.4431281464599095
2023-12-07 13:01:39.792550,12.89990027993541,-1.504568596427696,-3.29098927038583,-0.8414168532789912
2023-12-07 13:01:39.920764,1.29584158523642,1.27058791412624,-0.78154197130911,-0.3232404395959334
2023-12-07 13:01:40.299691,-6.786076352014041,3.3927027185606966,1.6163900738604062,-0.1014588277179976
2023-12-07 13:01:40.446867,-6.2497721710262,0.3928617393051409,3.2166919234210254,0.45060956097641
2023-12-07 13:01:40.530248,-14.541009986647325,2.629600185806808,4.981733438579397,0.3832599958410997
2023-12-07 13:01:40.793148,-8.090926683762751,6.239092470695769,0.7559514716821587,-0.8929951029324739
2023-12-07 13:01:40.984958,-1.6988752258984738,3.753723675463736,1.0840095382469623,-0.6818273668990542
2023-12-07 13:01:41.009566,-0.0686270315827552,5.030506829019124,0.8376864182754393,-1.7346841107903872
2023-12-07 13:01:41.121872,-8.588929802828867,6.483749316623392,-0.8595867106777884,-1.9065094503044857
2023-12-07 13:01:41.177366,-25.985832933994445,2.7078562243317443,7.08001893342516,0.4720922344150027
2023-12-07 13:01:41.231640,-14.033342877322667,2.224168590379848,7.328654653421249,-0.0893453727437398
2023-12-07 13:01:41.346358,-1.158276077591526,-2.964621582804092,0.7029664125516898,0.7009523954331378
2023-12-07 13:01:41.413374,-4.809358814369603,-5.879876145291847,0.8781829279973923,1.9763238816627464
2023-12-07 13:01:41.850370,2.966974196649292,0.2202041810070265,-1.1571579665563048,-0.0522493997718531
2023-12-07 13:01:41.883531,2.988590073122044,-2.543033640583948,-1.9031411859920944,0.7731158622970179
2023-12-07 13:01:42.346276,-7.05946788576247,-0.9406566217590598,2.6916633822135503,0.4704482221653865
2023-12-07 13:01:42.527394,-11.495027968820974,8.967020263508278,3.658856934262242,-2.3085065624516283
2023-12-07 13:01:42.605896,-10.20541751644267,7.663587631903499,1.9485551201128208,-1.6803158036759556
2023-12-07 13:01:42.671873,-0.1101222284404904,2.4273701080063947,1.6304723103909005,-0.8528407160295224
2023-12-07 13:01:42.768110,-1.0253785467818757,0.5217616993782253,2.581211810523216,-0.6335349463657264
2023-12-07 13:01:42.827590,-12.000487911972453,2.26761586860557,3.5705356714000684,-0.6241932601605646
2023-12-07 13:01:42.999591,-4.387073854245255,0.4142132009216295,2.151802438221808,-0.2521633509930701
2023-12-07 13:01:43.227328,5.654178835240749,-6.355504555941514,0.4376527662137013,1.484388095323482
2023-12-07 13:01:43.344211,0.8674696981044022,-2.314064575499853,2.541089575182798,0.2105780302854553
2023-12-07 13:01:43.433182,-3.4649012558754144,3.479256833942873,3.959077185712689,-1.635888158289616
2023-12-07 13:01:43.735188,0.9929860662896046,-0.1567564105612336,-0.6057913423752546,-0.1099199965567843
2023-12-07 13:01:43.758654,5.935075602690411,-4.409015207737477,-2.8650192278100306,1.3939719324380608
2023-12-07 13:01:43.856901,-0.9400557923278876,-4.60307051381239,0.429410030511437,1.2452962312018423
2023-12-07 13:01:43.929103,0.987096327611104,-2.321981944581054,-2.393252004871106,1.1178669862928845
2023-12-07 13:01:44.060184,4.576494336614233,1.6539142662416075,-3.4963273154378967,-0.0537610389435308
2023-12-07 13:01:44.114077,-11.90633475059747,4.336053642389523,3.5152083588274894,-2.0272778110916247
2023-12-07 13:01:44.557616,-3.787625383260365,-3.579389430906456,-0.391861774362227,1.031376675757991
2023-12-07 13:01:44.704437,8.365134759635792,-8.421480603967034,-6.364598121095721,3.389327457828669
2023-12-07 13:01:44.886878,-7.757866569533534,-0.4385478737595399,-1.1141171654196085,-0.2162309712110707
2023-12-07 13:01:45.000660,-9.459747232874758,0.9581745348410124,0.5458690753293532,-0.9371803666469412
2023-12-07 13:01:45.097102,1.4660774549904123,-4.341935798227915,-2.701981443426216,1.5724110411895025
2023-12-07 13:01:45.263088,17.620985544562643,-7.240160535429315,-5.129668188309115,3.693750467102402
2023-12-07 13:01:45.522170,17.45978516724101,-2.2705992824323804,-3.203567374677396,1.9653202890878323
2023-12-07 13:01:45.637025,2.666129176559111,2.4582621983510315,-2.2794843004244023,-0.4498847709656135
2023-12-07 13:01:46.059600,11.216188587154145,-3.5457068345289184,-6.747698314432301,2.4155210363700226
2023-12-07 13:01:46.086815,3.812139932335498,-3.29089320456167,-4.857498334333789,1.5569008665593798
2023-12-07 13:01:46.266287,-5.708369043577492,-1.9825091390624825,-4.774017819996757,0.3027270249786076
2023-12-07 13:01:46.336366,-2.650738749659041,-1.7881248824376696,-3.289811819591283,0.3278607238383099
2023-12-07 13:01:46.421936,-13.79163812169267,5.561044665271329,4.025338004457212,-3.0523619342479065
2023-12-07 13:01:46.891113,7.585110406795062,0.8264749199772706,-4.641651734299397,1.0825094352284674
2023-12-07 13:01:46.932851,23.734976066571697,-2.623141006984341,-7.964384935471208,3.43440449546688
2023-12-07 13:01:46.995100,5.823197568559719,4.061753910942634,1.273663199692434,-0.7154557785880247
2023-12-07 13:01:47.175905,10.48511006342694,0.6742349513963563,-4.620860594194767,1.041384766875867
2023-12-07 13:01:47.301974,18.4299273768006,-2.953501513040775,-7.763262387675795,2.496975619870488
2023-12-07 13:01:47.571993,21.35930160232178,-2.056310618548989,-2.8450489421172835,3.2555770402264064
2023-12-07 13:01:47.827674,17.045264930361036,-2.0653948642226565,-2.794970446124058,3.3185471721024107
2023-12-07 13:01:48.114342,-1.2185676959092648,0.8490588270496812,2.0640032042169767,-0.7038195791160922
2023-12-07 13:01:48.373779,6.135097459002022,0.1690679021958851,1.4249616590991778,0.8160120502738789
2023-12-07 13:01:48.683026,16.65900073981578,-3.777985361145213,-6.402238612472234,4.015310786725043
2023-12-07 13:01:48.867629,0.660078005885903,-1.5474867214824652,-3.5954085677759027,0.58548350128963
2023-12-07 13:01:48.945722,-9.349112289824754,1.134533703347278,0.0921131787542968,-1.8133232409386075
2023-12-07 13:01:48.973730,-3.578366850391401,1.6283141506025485,1.4723295149893294,-1.145655521501776
2023-12-07 13:01:49.038901,0.4299850758617407,5.444070039674545,6.262160145089097,-2.0328925689632937
2023-12-07 13:01:49.098466,-2.0970600674641537,1.735088664326688,1.3451237278323178,-0.8920821031515662
2023-12-07 13:01:49.839178,-4.201244507339214,-4.97436038481451,-3.7594330010082575,1.0886551825727502
2023-12-07 13:01:50.284593,-11.638656477930308,2.7088585571324884,4.361564040699779,-3.1346801689713133
2023-12-07 13:01:50.478708,-31.96114380901681,8.233709372630061,7.811366348925276,-8.368953251424003
2023-12-07 13:01:50.573522,-0.1045466919404146,3.669916233552708,4.508791265964647,-1.3803955545904898
2023-12-07 13:01:51.049086,4.4055892046448655,0.6829838956260755,-0.77828535030286,0.6193841900692948
2023-12-07 13:01:51.321579,-6.072514607457187,-1.9595427218990569,-6.187344417057586,-0.2368848921576288
2023-12-07 13:01:51.468092,4.730418008606424,-5.875033648032882,-8.986346104627932,3.134017098608444
2023-12-07 13:01:51.540803,9.007660398883718,-7.571789269145412,-9.570754502932145,4.645438792126786
2023-12-07 13:01:51.846195,17.345888897320627,-4.972927051968168,-6.633418746743646,5.1465150609578725
2023-12-07 13:01:51.929602,23.30021331442153,-2.460659182318675,-1.3178329172669836,5.215013593259325
2023-12-07 13:01:52.036076,8.656736769643338,-0.6992846961067841,0.9883791380222742,1.8948652339636949
2023-12-07 13:01:52.316023,7.756982661836653,0.7146617630393919,1.57424980457594,1.2655502893660502
2023-12-07 13:01:52.465356,11.444178640414409,-1.7620367373631174,-0.8226927811964752,2.8608519072198657
2023-12-07 13:01:52.611629,-4.417925842564288,-1.0454376985061344,-1.3107307484168766,-0.5625383999431328
2023-12-07 13:01:52.745788,-24.24866132173073,7.072013761026495,7.695664353460584,-7.593355920668109
2023-12-07 13:01:52.852530,-20.631801031818394,4.807158046683716,5.556303565035986,-5.979648704742064
2023-12-07 13:01:52.957313,-3.174623628679608,-3.1144376633995123,-4.8406609718918325,0.549222258046084
2023-12-07 13:01:53.074127,6.037454759994668,-2.0531181328103307,-1.9224560668875128,1.9615033614571544
2023-12-07 13:01:53.134494,13.88332980151584,-2.275011029223888,-0.4750980895498337,3.766287507318413
2023-12-07 13:01:53.314117,6.5610123579756685,-1.6858649470884104,-1.8993613981375987,2.10938616600724
2023-12-07 13:01:53.433892,2.366090094556097,-0.7601645658401364,-0.3822448855153355,0.7820179074757251
2023-12-07 13:01:53.578727,2.784777652861451,-0.7194790659773329,0.668724837682963,0.8683790735604286
2023-12-07 13:01:53.640278,-12.73507811184165,5.145336490874292,7.506163440160804,-4.645671359590492
2023-12-07 13:01:53.695812,1.928691642691312,0.578973575147632,2.523049425423008,0.0922008732149868
2023-12-07 13:01:53.887196,5.951182664057876,-4.699465622673881,-7.805851784247181,3.0174816768026216
2023-12-07 13:01:54.185073,-22.3038751017864,5.529931925444681,4.622441965914239,-6.853230290704573
2023-12-07 13:01:54.285117,-4.428745886053444,5.29963381609235,8.375632146006105,-2.879653262499614
2023-12-07 13:01:54.817197,14.29584297790016,-3.055086220997268,-4.712240754238855,4.365389686407529
2023-12-07 13:01:54.920983,-5.846011257008723,0.2072735162721694,-1.6057200723462006,-1.3793798739180143
2023-12-07 13:01:55.191604,2.086676723871184,-0.9064345260033616,-3.1643564351757587,0.8649767382571679
2023-12-07 13:01:55.408233,29.451370338774502,-6.045399762350155,-8.645194931664792,9.073641973521529
2023-12-07 13:01:55.498212,15.23157155467232,1.6130264449917362,6.579576772620743,2.911073502391022
2023-12-07 13:01:55.635060,-3.297099440775216,3.696346255980316,5.798066022730489,-2.090294739521026
2023-12-07 13:01:55.720603,4.423861438856588,-2.7012022849404382,-5.123460117332223,2.060075803050481
2023-12-07 13:01:56.094207,-11.066546229733058,1.1171786745291143,1.052911033576018,-3.060337785487852
2023-12-07 13:01:56.363231,-0.7262271780085153,-0.4355983789820807,-3.441122892030891,-0.0226985080771675
2023-12-07 13:01:56.530419,28.079513718563145,-2.784793424709337,-1.605881709735839,7.579829591458573
2023-12-07 13:01:56.668037,-5.73373702598264,2.875321863347511,5.6107235780867,-2.352446761993808
2023-12-07 13:01:56.864123,-5.869183964504817,-5.127876638779915,-10.98879248056139,0.6760508806849739
2023-12-07 13:01:57.023645,19.066931804143973,-5.659386509840352,-7.349955327978928,6.570686105490291
2023-12-07 13:01:57.241038,0.1079273640106006,5.308339924945746,9.994412976396584,-1.9984956188855407
2023-12-07 13:01:57.413124,11.230545935567989,-2.504429353404347,-2.537931958435136,3.802840084805155
2023-12-07 13:01:58.710799,10.685345206683712,-4.390840793103318,-6.653526515417337,4.622962248746053
2023-12-07 13:01:58.934839,4.910552406279313,-0.6018557213645157,-0.0511597864852335,1.401704797682852
2023-12-07 13:01:59.247455,3.198032151939123,-0.6173257847303011,-0.4620088342523734,0.9827493956646371
2023-12-07 13:01:59.352866,9.405850749724364,-2.4037581645720847,-2.740144773769968,3.314849857683256
2023-12-07 13:01:59.601521,-0.2226559820962457,-0.8957628133503006,-1.9155507288071327,0.373121814256707
2023-12-07 13:02:00.042547,3.334045138699833,2.517792856006688,6.2322564175666,-0.6088574885623658
2023-12-07 13:02:00.222661,1.6635606929244284,2.634800721696333,5.966205357331649,-0.9493590724911491
2023-12-07 13:02:00.842501,16.453364912222593,-3.340936956483487,-3.017020850109041,5.429338775204823
2023-12-07 13:02:01.148893,-0.6068363045588901,-0.4889094147151043,-1.1677175391232364,0.0907412254948152
2023-12-07 13:02:01.364419,7.946629737797562,-0.3023562666589157,1.383135548564587,1.8755723885708089
2023-12-07 13:02:01.974479,17.586735453616804,-1.3160760240959712,1.6517533592311349,4.549165036585828
2023-12-07 13:02:02.235278,10.216607486677784,0.54234717547725,3.7479657115042246,1.9439204263324064
2023-12-07 13:02:02.312266,20.86871568249093,0.0805979344367496,5.484719827406717,4.497547696534739
2023-12-07 13:02:02.519716,-2.970380275826826,1.2018298590373413,1.808078347702123,-1.2932841724402029
2023-12-07 13:02:02.866078,-27.977560370733983,4.254063199400309,1.9146565220659184,-8.360488559821151
2023-12-07 13:02:02.947838,0.9730362261232508,2.927837063648692,6.581930467516721,-1.4738395868669207
2023-12-07 13:02:03.028846,12.494117257478518,-1.3281962945158343,0.4187001543359481,3.3827998743933594
2023-12-07 13:02:03.170542,-4.18096866240994,-1.9729103778555213,-5.361713504885665,0.2744880045525047
2023-12-07 13:02:03.267185,-14.429382022136132,1.598258077478412,-0.3421741638008302,-3.943617098010783
2023-12-07 13:02:03.496292,-9.387235611388416,1.8306412049300391,1.4347977123927524,-2.9790210717579706
2023-12-07 13:02:03.577513,10.297400861440863,-2.76324373314488,-3.280647108612216,3.8081122511730094
2023-12-07 13:02:03.728810,3.6110642325037534,-5.709098100783512,-11.615822012494547,4.378710057632084
2023-12-07 13:02:03.977790,-7.027168041771341,-4.86801499908948,-12.767849948707356,1.863041748430136
2023-12-07 13:02:04.001187,4.818859021860906,-2.945958401881972,-5.211423374136357,2.908397460178525
2023-12-07 13:02:04.156244,4.38110510769379,0.0294489472592608,1.0125261048164829,1.1158811090800242
2023-12-07 13:02:04.196716,2.900099191437317,1.3737897798570076,3.811872860277873,-0.3045321839485815
2023-12-07 13:02:04.333969,11.11187365627689,-0.495710328276964,2.411273013185645,2.066292931013983
2023-12-07 13:02:04.392608,-0.510130357316516,1.2868744027719008,2.9995417938823628,-1.2571433244004009
2023-12-07 13:02:04.647794,-18.374229608770325,5.519544199811671,7.078579917922384,-7.266315771167595
2023-12-07 13:02:04.980414,-1.068240235240454,5.178462939497641,11.475988950288611,-4.041985887728718
2023-12-07 13:02:05.086303,2.843649364109821,2.802802328872897,7.335980170948962,-1.704389109814541
2023-12-07 13:02:05.116739,5.981998184197871,-4.437582394790011,-8.359973708106534,4.440595912019435
2023-12-07 13:02:05.341627,15.985845206813222,-4.646981164460654,-5.738541679540231,6.269827994394092
2023-12-07 13:02:05.445440,-0.6397632895075631,0.0394560391017576,-0.1531529399818622,-0.0745491563641723
2023-12-07 13:02:05.716381,25.618110572941795,-6.611715145658061,-7.26013984796258,9.427170789814136
2023-12-07 13:02:05.824462,0.6569031173357207,-1.9795212890339504,-4.29856089020974,1.65596885566114
2023-12-07 13:02:05.953023,-21.80162162327704,3.488630883472698,1.3119798549038508,-6.382993425823573
2023-12-07 13:02:06.038079,-12.930050651074923,2.6311419844753083,2.1387342900328026,-4.315993405029616
2023-12-07 13:02:06.098146,-23.42514767563505,6.42388701798219,7.66290079439337,-9.185656710488264
2023-12-07 13:02:06.140749,17.533804216584272,-3.43970998812544,-2.4728832720363068,5.684996536397737
2023-12-07 13:02:06.632438,-1.9091230268053947,1.3601750638866343,2.4636231126703176,-1.3473079428706218
2023-12-07 13:02:06.760548,-11.907168123029289,6.825084563716341,12.681985869916096,-8.371023066372777
2023-12-07 13:02:06.872075,-8.739066237855647,5.2727859299041935,9.933073104242158,-6.413569776598618
2023-12-07 13:02:07.005153,2.1269799571508474,2.4292353362934693,7.003927377366777,-2.501905221491036
2023-12-07 13:02:07.286978,-21.924548428327164,4.029465572301651,2.032094337757365,-6.548096191585643
2023-12-07 13:02:07.683292,-9.733548216182786,0.1564948018753253,-3.307501265494431,-1.0183716110230927
2023-12-07 13:02:08.271107,19.19037203459886,-2.7061135162976573,0.5521356438263417,4.630603008956996
2023-12-07 13:02:08.303882,5.263424232799712,0.0034085387755359,2.2435465834856783,0.2419822856284066
2023-12-07 13:02:08.717541,15.105945890336072,-4.63337150055884,-6.025112811855813,6.61944143723878
2023-12-07 13:02:08.985165,15.735299822260693,-3.1698842683739974,-2.044994084304661,5.009851153485507
2023-12-07 13:02:09.011239,-16.12649292199494,5.346749312289628,7.605945959903837,-7.699343688764576
2023-12-07 13:02:09.169776,-26.535456712961125,8.578720697365716,12.049144485103822,-12.57651127458491
2023-12-07 13:02:09.192443,-27.09823836287253,8.937031504076408,12.663099626717834,-13.005579009218147
2023-12-07 13:02:09.226571,-8.500631274740185,2.3676188389362127,2.687438696433836,-3.385015967306119
2023-12-07 13:02:09.598074,3.9086060347766094,-0.8565013016398317,-0.6184483084912109,1.2985980984579375
2023-12-07 13:02:09.663283,-20.982572134629056,5.591896309141717,6.186940597659416,-8.367391770145234
2023-12-07 13:02:09.789852,-7.657094300052999,2.263001630320569,2.832637090058137,-3.321585939695589
2023-12-07 13:02:09.859328,26.913299099576925,-5.879619135052338,-4.087937112261452,8.742145836015364
2023-12-07 13:02:10.128875,6.247486272094901,-2.460275452337262,-3.9578517535153246,3.606327471712529
2023-12-07 13:02:10.164126,-12.617631840909583,1.2288650148618478,-2.502186734457016,-1.6843575028770374
2023-12-07 13:02:10.399058,-9.829073368692145,2.867695299299305,3.5865613158154064,-4.340362180832836
2023-12-07 13:02:11.852379,-32.17482691177656,8.969587939882793,10.427566719151686,-13.596913406857984
2023-12-07 13:02:11.972259,4.152367220383313,-4.890676143823145,-12.998006798154632,8.676652316559945
2023-12-07 13:02:12.038801,11.112599821105784,-6.235162710190922,-13.660917555623502,10.862223596370091
2023-12-07 13:02:12.574463,16.473804242965933,-3.874594822354843,-3.151328898720387,5.811273557283926
2023-12-07 13:02:12.766028,11.205899987043546,-2.138345803967544,-0.4515467470820143,2.902802295090708
2023-12-07 13:02:12.918883,-20.1408099401414,4.772676433748052,3.8027037009726334,-6.977499781391915
2023-12-07 13:02:13.052566,-13.969190171183524,2.846840173007525,1.132234627561696,-3.916460468505229
2023-12-07 13:02:13.601361,8.936883988056003,-3.467752974223548,-6.253066307143413,6.088170945629112
2023-12-07 13:02:13.952599,13.249440261948868,-4.971719767613248,-8.379810559149954,8.327065154332411
2023-12-07 13:02:14.029319,12.393084835431877,-4.450170167388209,-7.0287628592331215,7.233084812119801
2023-12-07 13:02:14.535038,-1.357572159504135,0.0418326909384973,-1.0710249878369518,0.5746507736237245
2023-12-07 13:02:14.697895,-5.512381148563749,1.373378155265375,0.9598294090511132,-1.737216161018646
2023-12-07 13:02:14.903000,1.0451118353635631,-1.1129779162346505,-3.056576183029474,2.2324870216954134
2023-12-07 13:02:15.177054,-13.401614131956276,3.89461347012948,4.982073699842641,-6.362084427033172
2023-12-07 13:02:15.893577,-14.822555702380091,4.517397518479245,6.310965826370606,-7.647950722190736
2023-12-07 13:02:16.126620,2.3207189455768766,-0.6904095017756093,-0.909400665075417,1.1823430748569286
2023-12-07 13:02:16.218556,-13.34460820091352,4.709572686399215,8.33593942480663,-8.87246502841426
2023-12-07 13:02:16.244990,-14.770218154338576,2.873070753578734,0.1213547962404144,-3.336627352222182
2023-12-07 13:02:16.330074,4.182228530012964,-2.6940694724791125,-7.27777067273437,6.161224611111908
2023-12-07 13:02:16.386513,5.344667547617223,-1.6243589232215057,-2.366753161927444,2.955034227382342
2023-12-07 13:02:16.437863,8.591618081426205,-3.024086867588326,-5.896423998285268,6.426332081980355
2023-12-07 13:02:16.663187,-6.35073610302543,1.81622452673348,2.114187382823117,-2.846254390660171
2023-12-07 13:02:16.723132,-29.84568160039771,7.232215095324963,5.890924152709768,-11.009000221612911
2023-12-07 13:02:16.821735,-27.60870756513029,5.455594501278344,-0.7668715805844859,-5.187659066384349
2023-12-07 13:02:16.900726,-34.41382976091215,10.011621476385171,11.761357894150755,-15.811141100276329
2023-12-07 13:02:16.975098,-26.621820821761027,7.021116501179059,6.8775177161201055,-10.847863495536556
2023-12-07 13:02:17.044314,4.213582316635333,-3.692533952362121,-12.383463487417565,10.45957423438294
2023-12-07 13:02:17.147494,10.210554906068422,-3.323111473258007,-6.0219422321191205,7.048395519620288
2023-12-07 13:02:17.431465,-10.194444336301594,2.0640468638911007,-0.2251249215201661,-1.9143325810420144
2023-12-07 13:02:17.709802,-30.157789349583297,5.984337546482929,-1.2305332050595357,-5.317203038705769
2023-12-07 13:02:17.751509,-11.388962336213766,2.5585922986766847,0.781253312168788,-2.931871006513016
2023-12-07 13:02:18.017108,8.44579104699836,-2.7370031728864195,-4.440714935761825,5.309375431973965
2023-12-07 13:02:18.164795,-7.104660782222262,0.0482971384013078,-6.845627101194908,4.049042295205652
2023-12-07 13:02:18.214896,-11.096805826157794,2.3262064263486546,-0.0392885466055006,-2.2314076449989853
2023-12-07 13:02:18.507327,-2.8829372473356623,1.2961971432911583,3.4741094246545186,-3.4045344424114865
2023-12-07 13:02:18.539448,17.026374809614527,-4.643649287592467,-4.633834360627565,7.210698975265467
2023-12-07 13:02:18.570885,19.059682294341982,-5.490355565205847,-6.706572763318185,9.34339763121402
2023-12-07 13:02:18.761113,-21.86669837819501,5.9826435069899695,6.666047294594369,-9.944170812231034
2023-12-07 13:02:18.873409,-16.76268823285757,4.175056856314575,3.112966160454717,-5.999882070657426
2023-12-07 13:02:19.223246,-15.192005176371726,0.7200767560824934,-13.310506007667534,8.050416433694421
2023-12-07 13:02:19.509124,-6.411267568297313,1.1444304036217776,-1.1258472106382196,-0.3526796023027713
2023-12-07 13:02:19.804636,15.034122208850228,-3.840719850692039,-2.9954942820104167,5.594454933842285
2023-12-07 13:02:19.903920,15.67546496526675,-5.073382248837755,-8.90360616553502,10.726011133829308
2023-12-07 13:02:20.130171,8.624179132128349,-3.020163036816821,-6.066253144774279,6.89830531855336
2023-12-07 13:02:20.228385,-0.7101496899707647,-0.0865613004866473,-1.2710029257454556,0.9728231243562484
2023-12-07 13:02:20.407910,7.786617941132109,-2.1192359554782776,-2.283176417935465,3.5608186365325976
2023-12-07 13:02:20.719378,8.127491751474647,-1.933682855947189,-0.8436013046327877,2.4035403304511544
2023-12-07 13:02:20.807752,17.143364882524605,-4.428567355710452,-3.767012962671624,6.73242187947502
2023-12-07 13:02:20.865744,29.717608993814075,-8.171882447474273,-9.186479893056475,13.89094857918158
2023-12-07 13:02:20.930514,2.840382357952418,-0.1875943086931607,2.5783796640102463,-1.6253857005797767
2023-12-07 13:02:20.984677,12.63452512589907,-1.5194679550496657,7.184761560163438,-3.60910651777564
2023-12-07 13:02:21.109320,22.94769961353024,-4.98912424585893,0.3734970583566811,4.329972134988892
2023-12-07 13:02:21.165933,-12.827129618372387,3.752350173620152,5.350741972963197,-7.157534600957632
2023-12-07 13:02:21.347877,0.9343070317413392,0.0243984998358803,1.479990844838924,-1.0807960446703386
2023-12-07 13:02:21.461860,19.26020194147808,-5.467485107637766,-6.817359716701567,9.759566802435636
2023-12-07 13:02:21.607759,19.71668941029164,-5.391294860861574,-5.760562476438919,8.928470286103114
2023-12-07 13:02:21.847860,21.198554910912137,-5.845758030875912,-6.678245119282781,10.295833935462657
2023-12-07 13:02:21.945521,-17.093393238597955,4.115157910988513,1.2898731346234684,-4.460193078871985
2023-12-07 13:02:22.043767,-26.026511075804923,7.638097832764897,11.611420061592147,-15.697269289321875
2023-12-07 13:02:22.614375,-9.064314354689078,3.1387115479924823,7.467794158048712,-8.59526645041787
2023-12-07 13:02:22.772860,-10.898536445437104,2.966249466588403,3.265085392952876,-5.079582762779681
2023-12-07 13:02:23.068207,5.514935995898911,-0.6923052060282741,4.162168332802196,-2.726672512772561
2023-12-07 13:02:23.419987,-7.392133087498929,1.952285852240952,1.816595593965225,-3.066262066649496
2023-12-07 13:02:23.677892,-12.540190501849276,2.538171502497202,-2.4282929475321864,-0.1535942970546308
2023-12-07 13:02:24.535218,16.165726631754314,-3.484291264539324,1.7946457991282616,1.5169582284015088
2023-12-07 13:02:24.678476,1.9294509146405765,0.5751002479589379,7.269975620208557,-6.283630569892555
2023-12-07 13:02:24.877795,-8.737641106867317,2.650845399989065,4.5559116929433445,-5.8499466320413385
2023-12-07 13:02:24.913854,-8.372054425359067,2.702560776619278,5.515792086133561,-6.663240734974543
2023-12-07 13:02:25.764126,-4.462612386025979,1.5078202156099858,3.4475339741060065,-4.001008091467961
2023-12-07 13:02:25.876635,15.655040007085224,-3.882388172021918,-1.8467856338945303,4.7720502954993975
2023-12-07 13:02:26.001359,1.1165341518099423,-0.0952151309703028,1.2154413870926195,-0.8644572631055694
2023-12-07 13:02:26.312124,8.287362839815136,-1.913764557645257,0.0533728270774532,1.5948275404817522
2023-12-07 13:02:26.524289,19.839944252115743,-4.5122719503788975,0.519169687888187,3.403462224087371
2023-12-07 13:02:26.756022,-6.929822369155777,2.3904083038403097,5.659213663161325,-6.515956100471266
2023-12-07 13:02:27.357283,4.725945481834867,-0.5863106008924935,3.6238357018581415,-2.383595124094077
2023-12-07 13:02:28.229541,-6.087368391138727,2.061964534837086,4.712089128046652,-5.480402792865451
2023-12-07 13:02:28.448407,-17.52620662463433,4.351256295039195,2.2487550980887288,-5.427134921490547
2023-12-07 13:02:28.506541,23.87092662300732,-6.43177271859104,-6.467139481215098,10.619102692273934
2023-12-07 13:02:28.572802,-10.323889089367944,2.167169415543881,-1.4420948229106936,-0.6325737305348383
2023-12-07 13:02:29.069104,-35.62231884635598,8.860998823719388,4.618870525739116,-11.11522827335788
2023-12-07 13:02:29.104345,19.195826487695964,-4.34457461765061,0.6519996973865935,3.156420275522703
2023-12-07 13:02:29.177016,10.941281653272735,-2.1316857563373883,2.832489671410421,-0.4507874776574259
2023-12-07 13:02:29.360628,-18.40055341248357,5.192028405171747,6.75717538127243,-9.748973465778803
2023-12-07 13:02:29.383916,-8.770490547123222,2.300988824961686,2.0291004932340786,-3.5288316685713523
2023-12-07 13:02:29.772283,-1.0400239478478803,0.0850227308655985,-1.0268466900303783,0.7832369920985078
2023-12-07 13:02:30.316569,9.739395535263712,-2.077328774603101,1.2583431531280622,0.7663449582067917
2023-12-07 13:02:30.677642,10.127017664335725,-2.5809252016209774,-1.6650811737144422,3.53409331322861
2023-12-07 13:02:30.862653,15.886253053469757,-4.591422725806367,-6.479606393780925,9.084109592673636
2023-12-07 13:02:30.963983,18.907129711252416,-4.686562818288928,-2.234355486556465,5.759102189428883
2023-12-07 13:02:31.217546,-1.520483884746217,0.2616554061217382,-0.5643588540419284,0.2642527037771947
2023-12-07 13:02:31.301298,-0.8497305274121174,-0.3274339136330832,-3.630310014797197,3.218119009364419
2023-12-07 13:02:31.505606,3.735053611217861,-0.1387688082609239,5.163346337319464,-3.9933362030460327
2023-12-07 13:02:31.660725,1.625963931660764,0.7739413689770509,8.171087831966407,-7.172158239408909
2023-12-07 13:02:31.952770,11.045977700406503,-3.5396767838428604,-6.9383730665056245,8.569209625606664
2023-12-07 13:02:32.035043,12.659326235651289,-4.670069862645703,-12.29017461539806,13.811062980066128
2023-12-07 13:02:32.112294,17.081901566351586,-5.119671886074092,-8.264944500082185,10.96020995176685
2023-12-07 13:02:32.162127,20.621366396073903,-6.682348621866033,-13.53232495014076,16.49738230139973
2023-12-07 13:02:32.321162,-3.8317268369393744,-0.8705853448495958,-12.32098408668607,10.64529208835625
2023-12-07 13:02:32.487605,1.5404983678675983,-2.024904481726665,-11.723352439358072,11.135414041763353
2023-12-07 13:02:32.723595,16.96172689716626,-4.013698013929324,-0.6579972277703083,3.93052938078096
2023-12-07 13:02:32.960665,7.970796510055263,-1.1875805464796916,4.651350867667479,-2.7011805052542783
2023-12-07 13:02:33.085406,2.6793151627409144,-2.0114304851300955,-9.776173951808325,9.562566800241427
2023-12-07 13:02:33.112605,15.173328346171104,-4.870415180574725,-9.616558116852987,11.835571515655085
2023-12-07 13:02:33.144105,21.537723508577987,-5.065879108836207,-0.6371945326550802,4.797769739305345
2023-12-07 13:02:33.190546,28.968011414644955,-7.737404318135394,-7.396881230819987,12.463077575177929
2023-12-07 13:02:33.223088,14.129419315052674,-4.334014216625524,-7.531887116531701,9.713307965108964
2023-12-07 13:02:33.283689,-7.6298285199061295,2.322298581853724,4.0247963549725165,-5.145725291560419
2023-12-07 13:02:33.368128,-12.625186471079733,4.461512899754668,10.990103272851044,-12.528760853813829
2023-12-07 13:02:33.433320,-14.351717402944354,4.319865168152034,7.179632544949946,-9.35347909293508
2023-12-07 13:02:33.757823,14.594772458176994,-3.69885674842547,-2.2942590624116783,4.979324597458815
2023-12-07 13:02:33.810071,26.52049341545433,-6.179945251610532,-0.3928102424037758,5.537918539129305
2023-12-07 13:02:33.917818,-7.100976648740378,2.613673240603569,6.939055760674857,-7.727423910658243
2023-12-07 13:02:34.004615,-12.456387032488474,4.165961768917135,9.176249695252764,-10.825309827738424
2023-12-07 13:02:34.135031,-7.108042130752475,3.4389516939687392,12.75053395511132,-13.081495133032156
2023-12-07 13:02:34.618304,-5.894981453632883,3.124131542255969,12.502127390238918,-12.617701714359974
2023-12-07 13:02:34.697230,-5.63694629337718,2.4871156970850583,8.426014248297875,-8.813349039085185
2023-12-07 13:02:35.224482,-10.273159477113376,3.024478692371836,4.671329305074081,-6.253034525725474
2023-12-07 13:02:35.341706,-6.690387490315121,2.2580910639310456,5.093889182920649,-5.948263108293669
2023-12-07 13:02:35.801498,-2.4969104660086123,0.8269492386473765,1.8192064313967755,-2.119809722406964
2023-12-07 13:02:36.119760,-3.852442813608916,0.6342558963344403,-1.7476508918503786,0.9029493774402038
2023-12-07 13:02:36.713832,-10.758369354969798,2.4592400627623925,-0.1097807129338895,-1.94324590752949
2023-12-07 13:02:36.933889,-8.390812877355437,2.013071163424191,0.5946132768746266,-2.133440404883609
2023-12-07 13:02:37.188207,-4.327779507074756,1.4747711744290288,3.408550818399375,-3.938254610541521
2023-12-07 13:02:37.347635,-3.939818036742332,1.6877847477577486,5.542726717049135,-5.82880216739068
2023-12-07 13:02:37.731796,1.3826564893216808,-0.0068126050056343,2.246466664078996,-1.7617957420036892
2023-12-07 13:02:38.136029,-3.584136030920716,0.8221772979349576,0.011766275795212,-0.6655135702585744
2023-12-07 13:02:38.170057,-11.448420820988892,2.5515506938876737,-0.5850157156614013,-1.6390816903314458
2023-12-07 13:02:38.245237,-3.4498891866827046,0.7736966780268989,-0.1130070922884942,-0.5245533926550306
2023-12-07 13:02:38.932770,9.774375857091297,-2.508905541639624,-1.7543408254974948,3.548684830966012
2023-12-07 13:02:39.025578,10.256325862998812,-3.3292262783880355,-6.7595853063918,8.252196077083118
2023-12-07 13:02:39.062679,-6.860291751102499,0.9949280728166936,-4.104552194970026,2.491387747324941
2023-12-07 13:02:39.262202,-13.149673282348052,3.2356423680628863,1.470775669667151,-3.862033429910586
2023-12-07 13:02:39.341670,1.998201918176356,-0.4909517174085479,-0.172810182663995,0.5858688871285374
2023-12-07 13:02:39.833931,1.5076608089333032,-0.3138460275892317,0.2780520276485674,0.0755979588755779
2023-12-07 13:02:40.021175,-10.802570493054429,2.896573691114022,2.8966383846804624,-4.720676798812203
2023-12-07 13:02:40.090465,-1.483657974308897,0.3113188061592039,-0.180103723406507,-0.0817785203224546
2023-12-07 13:02:40.279384,7.200317861264567,-1.8751952617159409,-1.4763426100427468,2.794181436632891
2023-12-07 13:02:40.313677,-0.1319597132646431,0.2450603286316375,1.551397225236563,-1.4147540561006282
2023-12-07 13:02:40.377366,2.9856975659682554,-0.4631788539711741,1.6273191883247646,-0.8807988185855902
2023-12-07 13:02:40.787448,8.627921441433228,-1.874756380643024,0.8489030332714761,0.9290466507183232
2023-12-07 13:02:40.875899,4.689016058762854,-0.9637821571650766,0.8659446108973176,0.1504257821658926
2023-12-07 13:02:40.958147,1.9423528187558463,-0.4542161216207416,-0.0092018025409053,0.4244950436349522
2023-12-07 13:02:41.101931,-3.14115993866477,0.805581481534929,0.6064851789263518,-1.127218927967546
2023-12-07 13:02:41.144941,-6.750981876229614,1.8562776863879749,2.1452414945468488,-3.243694033345976
2023-12-07 13:02:41.668717,-5.202576042257948,1.7074523902882093,3.614819996047181,-4.297338603613301
2023-12-07 13:02:41.835656,-6.199593090251564,1.881702546051257,3.221222332897387,-4.127912335625721
2023-12-07 13:02:42.015434,-7.187269718713622,1.9388716736584368,2.0165755950892934,-3.20965004036066
2023-12-07 13:02:42.074173,-1.0815401140217271,0.5415684519605263,2.0934090516307213,-2.097767125439683
2023-12-07 13:02:42.312126,5.941297282075579,-1.5679138122037382,-1.3629440471272778,2.4460396639534654
2023-12-07 13:02:42.458721,-0.7469187935748617,-0.0290861805048757,-1.390006909233117,1.1755167204526786
2023-12-07 13:02:42.741498,-7.783064725933518,2.4681134140370777,4.780013626373327,-5.870300968365582
2023-12-07 13:02:43.043134,-5.853610450100796,1.9015183512656155,3.921615974505938,-4.705928784410699
2023-12-07 13:02:43.089374,-8.870586116326777,2.0946862322237,0.3737049769894719,-2.022436153273716
2023-12-07 13:02:43.207137,-4.4846535222450346,1.1618180256211157,0.9288844154494384,-1.6842546563411291
2023-12-07 13:02:43.366245,4.859184430193922,-1.064972131121261,0.4226233462010871,0.5918924362722628
2023-12-07 13:02:43.395980,2.0002517717444364,-0.500537908534477,-0.2479167077424251,0.6557567201777792
2023-12-07 13:02:43.465802,1.820353706658464,-0.4759354584484255,-0.3674682270201636,0.7310364434006665
2023-12-07 13:02:43.510536,3.119147088603253,-0.810522697435229,-0.6150066965828057,1.2106123311177284
2023-12-07 13:02:43.667614,-0.855552786728356,0.1529739234903588,-0.2853930795583237,0.1371547694083788
2023-12-07 13:02:44.148787,2.779063212371265,-0.7133441907197993,-0.4834073031027273,1.023547996978626
2023-12-07 13:02:44.212242,5.149748439838365,-1.275374784349666,-0.5912991194183401,1.5821176762288134
2023-12-07 13:02:44.362779,-1.5635665607588087,0.4048053043871594,0.3384679771998632,-0.5745711101686521
2023-12-07 13:02:44.391436,-3.5289750841297045,0.9915880230360776,1.2801181160528918,-1.822568067691568
2023-12-07 13:02:44.435945,-0.3718001621213005,0.2371505372987475,1.0945839959103894,-1.0401483334737869
2023-12-07 13:02:44.566212,1.0765956110777404,-0.1563736101831074,0.6747115949840266,-0.3728676149547815
2023-12-07 13:02:44.731173,0.607566253613517,-0.069858847726299,0.5215780397865012,-0.3226627122511413
2023-12-07 13:02:44.866876,-1.743317756247755,0.3860576303538635,-0.0877045245396344,-0.2168187787499495
2023-12-07 13:02:45.143146,-1.483250671724572,0.3269523964334356,-0.0817271690371054,-0.1719447537507648
2023-12-07 13:02:45.369167,0.059989505470595,-0.0134553988694357,0.0276829894183306,0.0262026857021887
2023-12-07 13:02:45.726588,-0.6689913007843864,-0.0199579414492328,-1.204959504180393,1.020350703457413
2023-12-07 13:02:45.819133,0.5357276248843527,-0.4147567817190943,-2.0303802938445727,2.013966071060579
2023-12-07 13:02:45.899538,1.6397232849509438,-0.5660381978434459,-1.3011894253158598,1.5561767047380874
2023-12-07 13:02:46.111347,0.6356379489970319,-0.2355067530223364,-0.6030703190947293,0.7186850160974715
2023-12-07 13:02:46.230202,-0.0662887964040125,-0.135589368834622,-1.0405975487368704,0.9857205494185288
2023-12-07 13:02:46.612918,0.1649235648013625,-0.2082044143842916,-1.1768317985485537,1.1559886320780082
2023-12-07 13:02:46.780871,1.6066864127657177,-0.3621149635754955,0.0836444849005303,0.274273633592196
2023-12-07 13:02:46.864612,1.8102861185839472,-0.3236864137248411,0.6861475382450843,-0.241230916177583
2023-12-07 13:02:47.340977,0.5306912962428679,-0.0865185508869538,0.2770072620644508,-0.112233571296201
2023-12-07 13:02:47.372789,-1.096064727906548,0.3618978505165516,0.7936249463684543,-0.9031605991663292
2023-12-07 13:02:47.425736,-0.5115866423128799,0.2365188388402483,0.8601079326887853,-0.8511847096929885
2023-12-07 13:02:47.454611,0.6147615413413704,-0.033769081008131,0.7859596771988419,-0.564722479658816
2023-12-07 13:02:47.557298,-2.949567614461907,0.9327155591316084,1.804930998567497,-2.19364473850196
2023-12-07 13:02:47.668644,-0.0078160067032655,0.005393237681225,0.0463404491543816,-0.0096168909756707
2023-12-07 13:02:47.794641,-0.0078181604775382,0.0053920202099339,0.0463310547380382,-0.0096184615833698
2023-12-07 13:02:47.942733,-0.0078246205030033,0.0053883685294199,0.0463028771478534,-0.0096231724603917
2023-12-07 13:02:48.101694,-0.0078353828883828,0.0053822848393187,0.0462559333569537,-0.0096310207690802
2023-12-07 13:02:48.170420,-0.0078504411508184,0.0053737728042177,0.0461902516425234,-0.0096420017819077
2023-12-07 13:02:48.421185,-0.0078697862197758,0.0053628375514487,0.0461058715687714,-0.0096561088843226
2023-12-07 13:02:48.488081,-0.0078934064425088,0.0053494856679989,0.0460028439630989,-0.0096733335787339
2023-12-07 13:02:49.180991,-0.0079212875910785,0.0053337251965438,0.0458812308854831,-0.0096936654896299
2023-12-07 13:02:49.357619,-0.0079534128709234,0.005315565630602,0.0457411055910945,-0.0097170923698275
2023-12-07 13:02:49.417104,-0.0079897629309764,0.005295017908817,0.0455825524861709,-0.0097436001078503
2023-12-07 13:02:49.457204,-0.0080303158753203,0.005272094408368,0.0454056670771739,-0.0097731727364279
2023-12-07 13:02:49.856664,-0.0080750472763779,0.0052468089375147,0.0452105559132599,-0.0098057924421148
2023-12-07 13:02:49.983438,-0.0081239301896259,0.005219176727279,0.0449973365220982,-0.0098414395760199
2023-12-07 13:02:50.144082,-0.0081769351698251,0.0051892144222714,0.0447661373390774,-0.0098800926656427
2023-12-07 13:02:50.354534,-0.0082340302887574,0.0051569400706638,0.0445170976299401,-0.0099217284278074
2023-12-07 13:02:50.842576,-0.0082951811544581,0.0051223731133189,0.0442503674068949,-0.0099663217826877
2023-12-07 13:02:51.058610,-0.0083603509319324,0.0050855343720794,0.0439661073382546,-0.010013845868914
2023-12-07 13:02:51.386041,-0.008429500365343,0.0050464460372253,0.0436644886516553,-0.0100642720597539
2023-12-07 13:02:52.010886,-0.0085025878016571,0.0050051316541081,0.0433456930309156,-0.0101175699803556
2023-12-07 13:02:52.115717,-0.0085795692157358,0.0049616161089672,0.0430099125065968,-0.0101737075260446
2023-12-07 13:02:52.295876,-0.0086603982368538,0.00491592561394,0.0426573493403313,-0.0102326508816625
2023-12-07 13:02:52.500233,-0.0087450261766313,0.004868087691272,0.0422882159029871,-0.010294364541936
2023-12-07 13:02:52.682825,-0.0088334020583616,0.0048181311567393,0.0419027345467441,-0.0103588113328636
2023-12-07 13:02:52.746586,-0.0089254726477184,0.0047660861022901,0.0415011374711572,-0.0104259524341084
2023-12-07 13:02:52.898797,-0.0090211824848212,0.0047119838779192,0.0410836665832881,-0.0104957474023816
2023-12-07 13:02:53.169882,-0.0091204739176431,0.0046558570727836,0.0406505733519894,-0.010568154195804
2023-12-07 13:02:53.302843,-0.0092232871367376,0.0045977394955719,0.0402021186564293,-0.0106431291992308
2023-12-07 13:02:53.438659,-0.009329560211266,0.0045376661541394,0.0397385726289475,-0.0107206272505234
2023-12-07 13:02:53.503281,-0.009439229126302,0.0044756732344209,0.0392602144923379,-0.0108006016677536
2023-12-07 13:02:53.704618,-0.009552227821392,0.0044117980786331,0.0387673323916551,-0.0108830042773228
2023-12-07 13:02:53.934886,-0.0096684882303473,0.0043460791627812,0.0382602232206463,-0.0109677854429802
2023-12-07 13:02:54.050065,-0.0097879403222448,0.004278556073483,0.0377391924429143,-0.0110548940957219
2023-12-07 13:02:54.119027,-0.0099105121436111,0.0042092694841225,0.0372045539079169,-0.0111442777645526
2023-12-07 13:02:55.070209,-0.0100361298617641,0.0041382611303504,0.0366566296619162,-0.0112358826080926
2023-12-07 13:02:55.268383,-0.0101647178092876,0.0040655737849437,0.0360957497539898,-0.0113296534470093
2023-12-07 13:02:55.386269,-0.0102961985296102,0.0039912512320415,0.0355222520372215,-0.0114255337972557
2023-12-07 13:02:55.595879,-0.0104304928236623,0.0039153382407705,0.0349364819651914,-0.0115234659040941
2023-12-07 13:02:55.779281,-0.0105675197975829,0.003837880538278,0.0343387923838877,-0.0116233907768852
2023-12-07 13:02:56.023727,-0.0107071969114466,0.0037589247821877,0.033729543319165,-0.011725248224622
2023-12-07 13:02:56.221627,-0.0108494400289828,0.0036785185324948,0.0331091017598787,-0.0118289768921868
2023-12-07 13:02:56.344149,-0.0109941634682565,0.0035967102229174,0.0324778414368241,-0.0119345142973089
2023-12-07 13:02:56.666035,-0.0111412800532792,0.0035135491317223,0.0318361425976157,-0.0120417968682016
2023-12-07 13:02:56.787982,-0.0112907011665213,0.0034290853520411,0.0311843917776395,-0.012150759981856
2023-12-07 13:02:56.910278,-0.0114423368022914,0.0033433697616966,0.0305229815672189,-0.0122613380029666
2023-12-07 13:02:57.106586,-0.0115960956209524,0.0032564539925551,0.0298523103751329,-0.0123734643234684
2023-12-07 13:02:57.157138,-0.0117518850039414,0.003168390399426,0.0291727821886296,-0.0124870714026585
2023-12-07 13:02:57.255274,-0.0119096111095595,0.0030792320285249,0.0284848063300794,-0.0126020908078806
2023-12-07 13:02:57.506088,-0.0120691789294984,0.0029890325855206,0.0277887972104145,-0.0127184532557457
2023-12-07 13:02:57.542895,-0.01223049234607,0.0028978464031848,0.027085174079503,-0.0128360886538663
2023-12-07 13:02:57.702530,-0.012393454190104,0.0028057284086641,0.0263743607736088,-0.0129549261430772
2023-12-07 13:02:57.824978,-0.0125579662994791,0.0027127340903938,0.0256567854600883,-0.0130748941401187
2023-12-07 13:02:57.926454,-0.0127239295782522,0.0026189194646739,0.0249328803794787,-0.0131959203807551
2023-12-07 13:02:58.016374,-0.0128912440563498,0.0025243410419271,0.0242030815851319,-0.0133179319633046
2023-12-07 13:02:58.078914,-0.0130598089497867,0.0024290557926588,0.0234678286805526,-0.0134408553925521
2023-12-07 13:02:58.138742,-0.0132295227213742,0.00233312111314,0.0227275645545977,-0.0135646166240202
2023-12-07 13:02:58.319599,-0.0134002831418821,0.0022365947908346,0.0219827351146965,-0.013689141108571
2023-12-07 13:02:58.362600,-0.0135719873516184,0.0021395349695897,0.0212337890182525,-0.013814353837311
2023-12-07 13:02:58.426734,-0.0137445319223875,0.0020420001146124,0.0204811774023894,-0.0139401793867746
2023-12-07 13:02:58.608258,-0.0139178129197918,0.0019440489772522,0.0197253536122025,-0.0140665419643557
2023-12-07 13:02:58.736279,-0.0140917259658379,0.0018457405596117,0.0189667729276811,-0.0141933654539625
2023-12-07 13:02:58.834888,-0.01426616630181,0.0017471340790056,0.0182058922894643,-0.0143205734618672
2023-12-07 13:02:58.924653,-0.0144410288513723,0.0016482889322908,0.0174431700235974,-0.0144480893627223
2023-12-07 13:02:59.002866,-0.0146162082838635,0.0015492646600875,0.0166790655654533,-0.0145758363457174
2023-12-07 13:02:59.350116,-0.0147915990777439,0.0014501209109145,0.0159140391829861,-0.0147037374608466
2023-12-07 13:02:59.454903,-0.0149670955841575,0.0013509174052593,0.0151485516994821,-0.0148317156652608
2023-12-07 13:02:59.529989,-0.0151425920905712,0.001251713899604,0.0143830642159782,-0.014959693869675
2023-12-07 13:02:59.691972,-0.0153179828844516,0.0011525701504311,0.0136180378335109,-0.0150875949848042
2023-12-07 13:02:59.843219,-0.0154931623169428,0.0010535458782278,0.0128539333753669,-0.0152153419677993
2023-12-07 13:03:00.064694,-0.0156680248665051,0.0009547007315129,0.0120912111095,-0.0153428578686544
2023-12-07 13:03:00.214443,-0.0158424652024771,0.0008560942509068,0.0113303304712832,-0.0154700658765591
2023-12-07 13:03:00.900007,-0.0160163782485233,0.0007577858332663,0.0105717497867617,-0.0155968893661659
2023-12-07 13:03:01.086514,-0.0161896592459276,0.0006598346959061,0.0098159259965749,-0.015723251943747
2023-12-07 13:03:01.286997,-0.0163622038166967,0.0005622998409288,0.0090633143807117,-0.0158490774932106
2023-12-07 13:03:01.431218,-0.016533908026433,0.0004652400196839,0.0083143682842677,-0.0159742902219507
2023-12-07 13:03:01.588242,-0.0167046684469409,0.0003687136973785,0.0075695388443665,-0.0160988147065014
2023-12-07 13:03:01.714557,-0.0168743822185283,0.0002727790178598,0.0068292747184116,-0.0162225759379696
2023-12-07 13:03:02.010901,-0.0170429471119652,0.0001774937685914,0.0060940218138324,-0.0163454993672171
2023-12-07 13:03:02.087714,-0.0172102615900629,8.291534584465528e-05,0.0053642230194855,-0.0164675109497665
2023-12-07 13:03:02.579832,-0.017376224868836,-1.0899279875180355e-05,0.0046403179388759,-0.0165885371904029
2023-12-07 13:03:03.307977,-0.0175407369782111,-0.0001038935981454,0.0039227426253555,-0.0167085051874444
2023-12-07 13:03:03.433989,-0.0177036988222451,-0.0001960115926662,0.0032119293194613,-0.0168273426766553
2023-12-07 13:03:03.549904,-0.0178650122388167,-0.000287197775002,0.0025083061885498,-0.0169449780747759
2023-12-07 13:03:03.726895,-0.0180245800587556,-0.0003773972180063,0.0018122970688848,-0.017061340522641
2023-12-07 13:03:03.773774,-0.0181823061643737,-0.0004665555889074,0.0011243212103346,-0.0171763599278631
2023-12-07 13:03:03.973605,-0.0183380955473627,-0.0005546191820365,0.0004447930238314,-0.0172899670070532
2023-12-07 13:03:04.086262,-0.0184918543660237,-0.0006415349511779,-0.0002258781682545,-0.017402093327555
2023-12-07 13:03:04.181998,-0.0186434900017938,-0.0007272505415225,-0.0008872883786752,-0.0175126713486656
2023-12-07 13:03:04.507385,-0.0187929111150358,-0.0008117143212037,-0.0015390391986514,-0.01762163446232
2023-12-07 13:03:04.591286,-0.0189400277000586,-0.0008948754123988,-0.0021807380378598,-0.0177289170332127
2023-12-07 13:03:04.853101,-0.0190847511393322,-0.0009766837219762,-0.0028119983609143,-0.0178344544383348
2023-12-07 13:03:04.995644,-0.0192269942568685,-0.0010570899716691,-0.0034324399202007,-0.0179381831058996
2023-12-07 13:03:05.190913,-0.0193666713707322,-0.0011360457277594,-0.0040416889849234,-0.0180400405536364
2023-12-07 13:03:05.296927,-0.0195036983446527,-0.0012135034302518,-0.0046393785662271,-0.0181399654264275
2023-12-07 13:03:05.659793,-0.0196379926387049,-0.0012894164215229,-0.0052251486382571,-0.0182378975332659
2023-12-07 13:03:05.723945,-0.0197694733590275,-0.0013637389744251,-0.0057986463550254,-0.0183337778835123
2023-12-07 13:03:05.764061,-0.019898061306551,-0.0014364263198317,-0.0063595262629519,-0.018427548722429
2023-12-07 13:03:05.900873,-0.020023679024704,-0.0015074346736039,-0.0069074505089526,-0.018519153565969
2023-12-07 13:03:05.953527,-0.0201462508460702,-0.0015767212629644,-0.00744208904395,-0.0186085372347997
2023-12-07 13:03:06.104442,-0.0202657029379678,-0.0016442443522626,-0.007963119821682,-0.0186956458875414
2023-12-07 13:03:06.180305,-0.0203819633469231,-0.0017099632681144,-0.0084702289926907,-0.0187804270531988
2023-12-07 13:03:06.239646,-0.0204949620420131,-0.0017738384239023,-0.0089631110933736,-0.018862829662768
2023-12-07 13:03:06.351567,-0.0206046309570491,-0.0018358313436208,-0.0094414692299832,-0.0189428040799982
2023-12-07 13:03:06.423444,-0.0207109040315775,-0.0018959046850532,-0.009905015257465,-0.0190203021312908
2023-12-07 13:03:06.759027,-0.020813717250672,-0.0019540222622649,-0.0103534699530251,-0.0190952771347176
2023-12-07 13:03:06.902679,-0.0209130086834939,-0.0020101490674006,-0.0107865631843238,-0.01916768392814
2023-12-07 13:03:06.987408,-0.0210087185205967,-0.0020642512917715,-0.0112040340721928,-0.0192374788964132
2023-12-07 13:03:07.046503,-0.0211007891099534,-0.0021162963462206,-0.0116056311477797,-0.019304619997658
2023-12-07 13:03:07.117269,-0.0211891649916838,-0.0021662528807534,-0.0119911125040227,-0.0193690667885857
2023-12-07 13:03:07.801234,-0.0212737929314613,-0.0022140908034213,-0.0123602459413669,-0.0194307804488591
2023-12-07 13:03:07.970813,-0.0213546219525793,-0.0022597812984486,-0.0127128091076325,-0.019489723804477
2023-12-07 13:03:08.393477,-0.021431603366658,-0.0023032968435895,-0.0130485896319513,-0.019545861350166
2023-12-07 13:03:08.765451,-0.0215046908029721,-0.0023446112267067,-0.013367385252691,-0.0195991592707677
2023-12-07 13:03:09.040689,-0.0215738402363827,-0.0023836995615608,-0.0136690039392903,-0.0196495854616076
2023-12-07 13:03:09.183478,-0.021639010013857,-0.0024205383028003,-0.0139532640079306,-0.0196971095478339
2023-12-07 13:03:09.257978,-0.0217001608795577,-0.0024551052601452,-0.0142199942309757,-0.0197417029027142
2023-12-07 13:03:09.793231,-0.02175725599849,-0.0024873796117527,-0.014469033940113,-0.0197833386648789
2023-12-07 13:03:10.228660,-0.0218102609786892,-0.0025173419167604,-0.0147002331231339,-0.0198219917545017
2023-12-07 13:03:10.616070,-0.0218591438919372,-0.002544974126996,-0.0149134525142956,-0.0198576388884068
2023-12-07 13:03:11.063531,-0.0219038752929948,-0.0025702595978494,-0.0151085636782096,-0.0198902585940937
2023-12-07 13:03:11.254618,-0.0219444282373387,-0.0025931830982983,-0.0152854490872065,-0.0199198312226713
2023-12-07 13:03:11.496620,-0.0219807782973916,-0.0026137308200834,-0.0154440021921301,-0.0199463389606941
2023-12-07 13:03:11.536822,-0.0220129035772366,-0.0026318903860252,-0.0155841274865187,-0.0199697658408918
2023-12-07 13:03:11.962734,-0.0220407847258062,-0.0026476508574803,-0.0157057405641346,-0.0199900977517877
2023-12-07 13:03:12.092810,-0.0220644049485393,-0.00266100274093,-0.0158087681698071,-0.020007322446199
2023-12-07 13:03:12.628147,-0.0220837500174966,-0.0026719379936991,-0.0158931482435591,-0.0200214295486139
2023-12-07 13:03:12.728513,-0.0220988082799322,-0.0026804500288,-0.0159588299579893,-0.0200324105614414
2023-12-07 13:03:12.790220,-0.0221095706653118,-0.0026865337189013,-0.016005773748889,-0.0200402588701299
2023-12-07 13:03:12.934039,-0.0221160306907768,-0.0026901853994153,-0.0160339513390739,-0.0200449697471518
2023-12-07 13:03:13.001544,3.426820113529581,-0.5681845392570878,-0.3175467038049511,1.473290853841446
2023-12-07 13:03:13.159269,0.296956730089906,-0.0553854713881845,-0.0523536693385519,0.1187238160649462
2023-12-07 13:03:13.499678,-1.0333148939404408,0.1625693694319806,0.0603434572982957,-0.4569970020226373
2023-12-07 13:03:13.582936,0.3345352060205998,-0.061535570751365,-0.0555895312269445,0.1350018230009259
2023-12-07 13:03:13.744840,0.5297612539149161,-0.0935155703536763,-0.0721766788077871,0.2195060656554143
2023-12-07 13:03:13.780800,0.1444388056762258,-0.0303765575970603,-0.0395856897362796,0.0527592042026096
2023-12-07 13:03:13.914688,1.6163708585427077,-0.2715292735858603,-0.1643763930504292,0.6898143072163114
2023-12-07 13:03:13.988483,1.2586484369482618,-0.2129089036331303,-0.1341496646575612,0.5350195940188649
2023-12-07 13:03:14.023293,-1.7544316427833149,0.2807681256291019,0.1210580079256696,-0.7689797836499411
2023-12-07 13:03:14.370031,-1.046771688975196,0.1648391008474471,0.0609873288739618,-0.4626821492603916
2023-12-07 13:03:14.481701,2.785160716107385,-0.4629704703734807,-0.2638217593804782,1.195768174454522
2023-12-07 13:03:14.542821,2.597519829947062,-0.4322097068863826,-0.2480570203269966,1.1145969544595606
2023-12-07 13:03:14.656028,-2.2172634618507936,0.3566657769308883,0.1597621583900453,-0.9691447515497384
2023-12-07 13:03:14.739049,-1.9050578271369825,0.3055347169149007,0.1331490473090764,-0.8339811967165955
2023-12-07 13:03:14.821275,2.4664984095830365,-0.4106805575285602,-0.2374331531533869,1.0580260136744817
2023-12-07 13:03:15.106637,-0.8437131331507034,0.1316900420543404,0.0428638164970407,-0.3745440458324424
2023-12-07 13:03:15.433756,-2.132616653613184,0.3428902095983339,0.1518792849670755,-0.9323118805157254
2023-12-07 13:03:15.501127,3.1844552241623223,-0.5282340296255388,-0.298854553956742,1.368913747945952
2023-12-07 13:03:15.768003,1.967720026970598,-0.3288548378710803,-0.1959778472724229,0.8423861875521605
2023-12-07 13:03:15.796877,0.6678309250799261,-0.1158501412515793,-0.0860670496376008,0.2798738471038228
2023-12-07 13:03:15.874308,2.3487887728789976,-0.3912272323193193,-0.2287408672906708,1.0074409911031752
2023-12-07 13:03:16.002271,-0.7404329179646828,0.1149455262686092,0.0327606333315152,-0.3294674720827428
2023-12-07 13:03:16.102805,-3.1003620604563262,0.5016321409908616,0.2324564707968118,-1.3507433643496536
2023-12-07 13:03:16.448551,-2.506718763849227,0.4044055759269216,0.1818791756917668,-1.093743994934892
2023-12-07 13:03:16.729509,-1.7084384931913,0.2736526288616185,0.113951647435436,-0.7481770397875337
2023-12-07 13:03:17.021722,-0.1608849869605785,0.0201398277366102,-0.0174740471123037,-0.0783302420780163
2023-12-07 13:03:17.072358,2.307230931000011,-0.3841969464277424,-0.2269113984826049,0.9899283318467892
2023-12-07 13:03:17.336410,0.8074860395597763,-0.1384362647891135,-0.1001544634785573,0.3409453250287588
2023-12-07 13:03:17.410077,-2.8584103061947794,0.462228978593563,0.2101345572020415,-1.2455202449249394
2023-12-07 13:03:17.524363,2.0415069186212293,-0.3405312056625368,-0.2053847364387194,0.8752025055288588
2023-12-07 13:03:17.621803,4.2696687612478215,-0.7055485066108268,-0.3945307215980073,1.839623019576072
2023-12-07 13:03:17.757705,-0.5538444083066842,0.0847850449480272,0.013816055393475,-0.2478375651232799
2023-12-07 13:03:17.787000,1.6857707659079022,-0.2821062921880252,-0.1763193626514129,0.7215451236191878
2023-12-07 13:03:17.910626,2.340410602774968,-0.3893133609263817,-0.2321658437926695,1.004971289257393
2023-12-07 13:03:18.384205,-1.8467826354025343,0.2967688415429392,0.122236829733177,-0.8070896746163396
2023-12-07 13:03:18.691739,-2.600480854486188,0.4203068179882221,0.1857039926358286,-1.1331710820506762
2023-12-07 13:03:18.827418,0.596770062444063,-0.1034793773612322,-0.085609026650455,0.2506751863538087
2023-12-07 13:03:18.948771,5.275180112867927,-0.8699382745143809,-0.4824317987803279,2.2755523765205408
2023-12-07 13:03:19.421425,1.5487301267170843,-0.2593400908390775,-0.1671021406480164,0.6629051092342592
2023-12-07 13:03:19.629010,-3.242723197160016,0.5257497268062051,0.2384596419657592,-1.4106611878793096
2023-12-07 13:03:19.738614,0.7233740886743001,-0.1240004998436392,-0.0980305947451193,0.3059417051311251
2023-12-07 13:03:20.248734,2.3326984127850845,-0.387615045916291,-0.2348339951840535,1.0025623978871572
2023-12-07 13:03:20.312359,2.270997514780574,-0.3774471635152054,-0.230055053738809,0.9759845447310616
2023-12-07 13:03:20.396674,3.953218250377204,-0.6530033126288397,-0.3730486935180611,1.7041577635166294
2023-12-07 13:03:20.427655,-3.5409338603880487,0.5749024166005954,0.2614834853461463,-1.53909578209787
2023-12-07 13:03:20.581688,-12.29610238374162,2.0094144392728976,1.0028579730741627,-5.328101010277221
2023-12-07 13:03:20.868205,-1.570823241865951,0.2522419405805228,0.0936098237206982,-0.6861910789214479
2023-12-07 13:03:21.040878,9.62921096272906,-1.582713916037048,-0.8558707954445317,4.16118892712462
2023-12-07 13:03:21.075582,0.1975905335605264,-0.0373695366439597,-0.0571958042842175,0.0794277428285784
2023-12-07 13:03:21.095031,-6.428064460160029,1.0482448556787043,0.5037192376009832,-2.7879425118817216
2023-12-07 13:03:21.174732,-5.209500422880568,0.8486594933607542,0.3999734445583343,-2.260423753084065
2023-12-07 13:03:21.305512,-7.634194204196567,1.2459876970535124,0.6049237224682048,-3.3096638250111496
2023-12-07 13:03:21.957857,-2.132653665202274,0.3446786460088855,0.138264446267586,-0.928519777514342
2023-12-07 13:03:22.054170,5.860743813721618,-0.9648968718809794,-0.5395385495740677,2.531072323540251
2023-12-07 13:03:22.218595,1.2638841495053323,-0.2116785602530531,-0.1505476375083949,0.541747011088753
2023-12-07 13:03:22.670136,-7.258645459128902,1.184723687622425,0.5710698986818316,-3.1465621896028337
2023-12-07 13:03:22.864850,-12.3129443503054,2.0128898303782456,0.9988145577345422,-5.333860261487146
2023-12-07 13:03:23.259170,-14.122598215241638,2.309452207263865,1.15163150784282,-6.1169126052063145
2023-12-07 13:03:23.330148,-12.356909389663064,2.0202291237473813,1.0015003949723034,-5.352597165309748
2023-12-07 13:03:23.490708,-9.010778711972945,1.4720659869257444,0.7174534219887386,-3.9042841513027065
2023-12-07 13:03:23.993480,3.112659427132321,-0.5141749339237293,-0.3103137373968662,1.3427469493640691
2023-12-07 13:03:24.039954,13.071998992456155,-2.1458488076681723,-1.1547138182470005,5.653181450689974
2023-12-07 13:03:24.140101,4.789008631781047,-0.7886910392609474,-0.4534061974750142,2.068545793532848
2023-12-07 13:03:25.059019,-0.3824136793934705,0.0586661073982661,-0.0157485199918775,-0.1694388479521817
2023-12-07 13:03:25.197099,1.5546979829711076,-0.2586420990456185,-0.1804112873808712,0.6690682847370132
2023-12-07 13:03:26.189948,5.681724186982016,-0.9347468862577368,-0.5306298402622963,2.455345225381856
2023-12-07 13:03:26.923039,13.87121584220574,-2.276447876761408,-1.2250687988734694,5.999810365944194
2023-12-07 13:03:26.948240,6.178286356931963,-1.0159659468460125,-0.5737582017940771,2.670546264126775
2023-12-07 13:03:27.168581,1.6920683767334717,-0.2808731929175373,-0.194157653277,0.7291097264854224
2023-12-07 13:03:27.398897,8.047258951202535,-1.322041845485592,-0.7331698008043693,3.479709673055231
2023-12-07 13:03:27.486486,-1.7875352182496194,0.2893636568243857,0.0996290286466643,-0.7765298758255358
2023-12-07 13:03:27.567488,-0.8455418281940464,0.1350952029245785,0.0192912573145338,-0.3687003397819494
2023-12-07 13:03:27.738659,9.56767705738557,-1.570943374085181,-0.8635599481440961,4.138165959038135
2023-12-07 13:03:28.002650,1.6870647752413217,-0.2797127776377824,-0.1963361718311583,0.7276719820906973
2023-12-07 13:03:28.278374,-0.2486809979683941,0.0375078522038245,-0.0328298428171766,-0.1099529877667083
2023-12-07 13:03:28.326475,1.020988660999593,-0.170448631853512,-0.1409215501762225,0.4396880677664337
2023-12-07 13:03:28.457565,-9.296526105971653,1.5200439258059326,0.7327952234776675,-4.025471894671818
2023-12-07 13:03:28.561152,-9.192639775947148,1.5030889614242888,0.723489851968216,-3.980370462427196
2023-12-07 13:03:28.786258,2.73552693164622,-0.4511619352220394,-0.2877060947506981,1.1821422854435313
2023-12-07 13:03:28.845658,0.7775143761141404,-0.1302955637511671,-0.1222942774635419,0.3348752569099399
2023-12-07 13:03:28.927181,-9.362828958991136,1.53116694290329,0.7364272511791032,-4.053611658286063
2023-12-07 13:03:29.222494,6.726562437513025,-1.1048627024238271,-0.6273435087693119,2.9098273316071386
2023-12-07 13:03:29.296209,20.0180123869102,-3.282477052754004,-1.7540339157768825,8.662348000044718
2023-12-07 13:03:29.447087,-1.1501750011609413,0.1857903103247639,0.0391143624452295,-0.4988672925651162
2023-12-07 13:03:29.702213,0.7925774037040275,-0.1324498303307917,-0.1259671248070315,0.3420645251276413
2023-12-07 13:03:30.000263,16.897395084727286,-2.77100989687669,-1.491022278348725,7.312173483923906
2023-12-07 13:03:30.126017,4.259151883456698,-0.700294811268983,-0.420614717356109,1.8426147377548512
2023-12-07 13:03:30.255103,9.459393465416383,-1.5522459449784256,-0.8616905576923145,4.093345025563984
2023-12-07 13:03:30.415903,9.482367548940504,-1.5559521560913652,-0.8640793682647077,4.103411592906101
2023-12-07 13:03:30.493883,-16.390186206583955,2.6830755877121404,1.3277182467738646,-7.093810245282225
2023-12-07 13:03:30.635872,-4.108332827236827,0.6708671770352614,0.2866250225268275,-1.7782459130709898
2023-12-07 13:03:30.774945,9.727008881144735,-1.5958664676927266,-0.8860906245625,4.209648130798668
2023-12-07 13:03:30.842207,-7.488633485224655,1.2248060034861057,0.5722129183082064,-3.2409685669537254
2023-12-07 13:03:30.904026,-8.910052435359063,1.4577447508160362,0.6922489214678472,-3.8560294566466258
2023-12-07 13:03:31.100700,3.2547062872094337,-0.5352830525073644,-0.3388902939022962,1.4088486102866475
2023-12-07 13:03:31.224743,4.780375384651431,-0.7851987775548589,-0.4685497323614572,2.0692487108691817
2023-12-07 13:03:31.267275,-1.10316526828715,0.1788125777939007,0.029596736178839,-0.4769743857619613
2023-12-07 13:03:31.450787,5.832408807838564,-0.9574667721580288,-0.5584365569261521,2.524765265771388
2023-12-07 13:03:31.591851,-1.566786511939832,0.2548676981907209,0.0681528571521313,-0.6774209077344008
2023-12-07 13:03:31.687702,-20.461153838228107,3.3505750505827563,1.668760497985147,-8.854587900069937
2023-12-07 13:03:31.838666,-5.364633387319281,0.8771988201762636,0.3892628686647116,-2.320892635113947
2023-12-07 13:03:32.104998,-5.876227611823637,0.9610617891817256,0.4322816389961767,-2.5422125526514963
2023-12-07 13:03:32.212334,-18.02420630780058,2.9514338735175047,1.4612844608294315,-7.799628590105316
2023-12-07 13:03:32.363445,-13.195951261215544,2.160410845901839,1.0518678584176264,-5.709928966246493
2023-12-07 13:03:32.442942,-17.544738225507942,2.8729571122135904,1.4200507407033045,-7.591950457966932
2023-12-07 13:03:32.519226,1.1510980892094294,-0.1901394448853522,-0.1643720694436205,0.4994727542019499
2023-12-07 13:03:32.785281,8.94005502519701,-1.4662494240134414,-0.8246225042210141,3.8705210494937607
2023-12-07 13:03:32.973373,-11.760160807264086,1.9253179883508773,0.929082057418174,-5.088219827564824
2023-12-07 13:03:33.072931,-12.770098189699278,2.0908198732063776,1.01440169077043,-5.525237974398952
2023-12-07 13:03:33.239275,-14.32263933669966,2.3452207078011504,1.145708631023071,-6.197091978140802
2023-12-07 13:03:33.480414,-13.509843057063511,2.2120820838867874,1.076607422475737,-5.84525840223431
2023-12-07 13:03:33.534876,-9.289080930803555,1.5205792752303076,0.7187542386650803,-4.018499706017899
2023-12-07 13:03:33.725836,6.673583989411683,-1.0947237030442585,-0.6340017300983981,2.890016061638871
2023-12-07 13:03:34.075676,23.42958962982816,-3.840009546287424,-2.053967064216787,10.141877216918877
2023-12-07 13:03:34.454541,-7.749299055081866,1.268377616494108,0.5876979768397042,-3.351935544397572
2023-12-07 13:03:34.515343,-11.938117701432487,1.9546980025659555,0.9424532520322078,-5.1647600544520005
2023-12-07 13:03:34.731017,11.451487440358616,-1.8774445438329943,-1.0395535108207397,4.958036388783922
2023-12-07 13:03:34.822969,-6.908789177739664,1.1307306422648142,0.516002077808723,-2.9880389217508365
2023-12-07 13:03:34.892012,-0.312994769469361,0.0500903244683786,-0.0430070569387749,-0.1334174228898428
2023-12-07 13:03:35.098556,12.317448451551211,-2.019271205322404,-1.113331348899595,5.332927112097892
2023-12-07 13:03:35.281174,-13.99533796114759,2.291841822343227,1.1160937740739392,-6.054913438652747
2023-12-07 13:03:35.587188,-15.062763433145742,2.4667419279699376,1.206442287923272,-6.516855896359177
2023-12-07 13:03:35.654711,0.6471754633491851,-0.1071705394265289,-0.1247756703167188,0.2822482719465458
2023-12-07 13:03:35.825626,6.016222075128879,-0.9868282527605556,-0.579776589317868,2.605929700709739
2023-12-07 13:03:36.363640,8.555532032365186,-1.402862325132424,-0.794995481844094,3.704930082158049
2023-12-07 13:03:36.445652,-13.634063287520096,2.232696848656494,1.0851275083521723,-5.898458716398316
2023-12-07 13:03:37.015992,-23.024870548488938,3.77129515617917,1.880796812741283,-9.962682966254851
2023-12-07 13:03:37.858063,11.256514941650332,-1.8453798778491488,-1.0239521220280667,4.8739115285213845
2023-12-07 13:03:38.613619,11.866429741438056,-2.007062385122872,-1.0809865917605488,5.061073185058004
2023-12-07 13:03:38.695721,-17.16612013073585,2.896668014290795,1.4041900108231642,-7.321331659070468
2023-12-07 13:03:39.027128,2.2590616606391567,-0.3837850762745086,-0.2584476097662528,0.9642012692278942
2023-12-07 13:03:39.435255,6.833088175846106,-1.157378238560827,-0.6500765104411164,2.9137566106958643
2023-12-07 13:03:40.293204,-8.468461321574814,1.432710242329178,0.6607889758294166,-3.605435602960649
2023-12-07 13:03:40.521230,20.466854695973968,-3.4664424541925607,-1.817936455437648,8.7207814006615
2023-12-07 13:03:40.565759,13.169324307131005,-2.23385914451056,-1.1931028906236243,5.608364934965986
2023-12-07 13:03:40.947142,-23.104632253042546,3.921560262700465,1.9170132422244728,-9.82702830155753
2023-12-07 13:03:41.090987,7.457448058656985,-1.2475078087406837,-0.7000378952088572,3.1990241165651945
2023-12-07 13:03:41.225491,22.871972210752894,-3.871529407517505,-2.0227429566604536,9.747937077074909
2023-12-07 13:03:41.425049,-13.781701545192885,2.338606868858594,1.1183559489468895,-5.861106603615895
2023-12-07 13:03:41.717293,-9.29700055396946,1.577446430845667,0.7341657685248181,-3.95296034797344
2023-12-07 13:03:41.845027,14.563820426222977,-2.4827938147403814,-1.313087691066854,6.186378472474663
2023-12-07 13:03:41.960883,6.1191223722289845,-1.0499227212195046,-0.5887263430533316,2.592783548581878
2023-12-07 13:03:42.025015,-3.524763723638276,0.5934437727522767,0.2396750193422711,-1.5024005312307671
2023-12-07 13:03:42.058043,-7.286890311748373,1.239936954943022,0.5640472564414859,-3.0932546437073207
2023-12-07 13:03:42.605548,-14.195384650080095,2.430476719243446,1.1599344467173451,-6.010380968683815
2023-12-07 13:03:42.683738,-1.6229133142675374,0.283143316439235,0.0801720276029345,-0.6777769162470758
2023-12-07 13:03:42.814032,22.905689045612416,-3.931392917505572,-2.031173873615961,9.694826809856398
2023-12-07 13:03:42.968809,16.36422810307138,-2.8131725020076632,-1.4683866131743617,6.921414412526685
2023-12-07 13:03:43.342334,-12.978076637240337,2.2433284881034434,1.0610778477448286,-5.46841345481111
2023-12-07 13:03:43.701331,-15.119831091243697,2.605030730976787,1.2450172771581467,-6.381973733505423
2023-12-07 13:03:43.909042,3.433900034794376,-0.5991561869741953,-0.3545739368383808,1.4437841110042413
2023-12-07 13:03:43.989592,5.153112598978385,-0.8753613647511472,-0.4986395238525455,2.194591048476031
2023-12-07 13:03:44.105493,-4.3983419795753775,0.7707821344123076,0.3252795457840771,-1.8383560618445232
2023-12-07 13:03:44.140489,-13.686082375247825,2.3794447533058136,1.1278601642597146,-5.750062568286388
2023-12-07 13:03:44.178031,-10.59389348100522,1.8519538886624904,0.8630279963535231,-4.437752450797913
2023-12-07 13:03:44.386596,16.88441780753719,-2.9691607988599342,-1.5191237979020764,7.0583475175466734
2023-12-07 13:03:44.434890,27.00660469798282,-4.751752374530359,-2.397260677285002,11.284893269015097
2023-12-07 13:03:44.509860,2.9651046807950743,-0.5215212138612354,-0.309480946151277,1.241595077800576
2023-12-07 13:03:44.592429,-6.806913499229212,1.192047695845739,0.5386340252979847,-2.847970513743816
2023-12-07 13:03:44.738992,0.4884903077854379,-0.0939866501650427,-0.0941908314001665,0.1966616099380946
2023-12-07 13:03:44.780518,-6.89990490509887,1.2335383799753354,0.5527698098645162,-2.855727389380605
2023-12-07 13:03:44.897051,-9.08883812934885,1.635774744537862,0.7466222130440324,-3.7489939833676775
2023-12-07 13:03:44.941069,18.15959722903472,-3.2285542628283244,-1.6297383718365324,7.54718869449679
2023-12-07 13:03:45.254218,27.59425243695069,-4.932306890152343,-2.455249497748232,11.4341935773057
2023-12-07 13:03:45.668638,0.9898978587695508,-0.1606025748748737,-0.1293414849494899,0.4326612672208973
2023-12-07 13:03:45.835340,2.849800437285518,-0.5009619059810319,-0.292039282893817,1.1933016071197324
2023-12-07 13:03:45.947994,18.052884822883,-3.27189771401321,-1.627165667567311,7.425233182384655
2023-12-07 13:03:46.151055,-8.215805074701796,1.4973849932933914,0.6793610877944712,-3.365753798741782
2023-12-07 13:03:46.295151,-26.82193445477976,4.914732070193352,2.320118177548332,-10.960288836252769
2023-12-07 13:03:46.641504,-0.4886490281261883,0.105502918587296,0.0051952023917258,-0.1779353162022239
2023-12-07 13:03:46.675067,23.19275395568495,-4.243609528173016,-2.080622845422594,9.4885372328665
2023-12-07 13:03:46.750481,4.484272488464945,-0.8140821871447607,-0.431928795443062,1.8440042328698243
2023-12-07 13:03:46.800444,-27.906658349700137,5.166585591085764,2.4291018784390577,-11.33797453202429
2023-12-07 13:03:46.949711,-21.855563621534404,4.073273799747697,1.900065627487656,-8.845720275988601
2023-12-07 13:03:47.050252,12.45413153994246,-2.332799976399505,-1.1402926937272937,5.028672030185795
2023-12-07 13:03:47.245026,13.76089345215931,-2.604592188762477,-1.2597351859156634,5.522519273729094
2023-12-07 13:03:47.328567,-18.72887734411833,3.5070462961031983,1.6293790680198108,-7.559729777735034
2023-12-07 13:03:47.386142,-11.952948694621192,2.2420969058855458,1.0299234309461736,-4.819436874540226
2023-12-07 13:03:47.440048,18.645885143351595,-3.5201861801849503,-1.6898264645824317,7.493386413124457
2023-12-07 13:03:47.486639,14.656109997798271,-2.756401455423468,-1.3317049841832034,5.903283077240667
2023-12-07 13:03:47.577168,2.90999110142072,-0.5461041185543453,-0.2862757977753122,1.174488927885548
2023-12-07 13:03:47.973372,-5.243922706866642,0.9802391241066846,0.4384511363201337,-2.118099000997661
2023-12-07 13:03:48.351718,9.535581059824144,-1.88641811555432,-0.888840310115739,3.7254792156964975
2023-12-07 13:03:48.530283,21.74981672311931,-4.23096166692157,-1.9813289968392431,8.585259741043203
2023-12-07 13:03:48.583822,-30.85389762670087,5.974494353670495,2.7488582455780373,-12.210836325566984
2023-12-07 13:03:48.806625,-29.74149212294522,5.801682007134382,2.657474421372426,-11.717751765292862
2023-12-07 13:03:49.067769,23.940806323073247,-4.639278949794797,-2.171660394258065,9.471991793539924
2023-12-07 13:03:49.330684,-10.08692550276141,1.985830056752505,0.8926361149243357,-3.951201255018558
2023-12-07 13:03:49.475320,-25.436970693066986,5.012752132531311,2.282210581318651,-9.95893513689202
2023-12-07 13:03:49.507340,7.702042752408468,-1.4945484179937494,-0.7090060050212886,3.0449554429872294
2023-12-07 13:03:49.762031,-6.07553389800094,1.197323294090631,0.5340791239915084,-2.378354844101762
2023-12-07 13:03:49.830865,-2.893167318648053,0.550410136486498,0.2442147629132648,-1.1569831560952315
2023-12-07 13:03:50.066303,10.63209851767219,-2.1366693265169943,-0.981198459509772,4.11159326782556
2023-12-07 13:03:50.205527,-3.8370378586209135,0.7579995450271451,0.3358102507312113,-1.4999008845826476
2023-12-07 13:03:50.510076,-8.362903952792927,1.704444820064701,0.7556620278511619,-3.204282472740214
2023-12-07 13:03:50.699853,-10.702909836518206,2.24875285902932,0.9827648601698228,-4.017286545889672
2023-12-07 13:03:50.768393,-6.759785102338341,1.4225803901951033,0.6190839195143801,-2.534480416289673
2023-12-07 13:03:50.904743,-3.526869614180073,0.6882269339887028,0.3113749085787491,-1.3895164922639396
2023-12-07 13:03:51.094432,1.881497311216206,-0.3781237129106875,-0.1764850245606065,0.7272906643361334
2023-12-07 13:03:51.149476,13.628940811256143,-2.798106511247083,-1.255416847720071,5.196421337368608
2023-12-07 13:03:51.436848,-5.21569169925264,1.0212511259373147,0.4678982594540619,-2.0507187748109006
2023-12-07 13:03:51.570507,-14.345264998066542,3.0023958895521634,1.3258229904143752,-5.399345473331221
2023-12-07 13:03:51.867607,-0.3416746568546061,0.133658543792105,0.042159312849412,-0.0520000034200607
2023-12-07 13:03:52.099546,18.039601343100458,-3.775816262541153,-1.667835467798117,6.788296997411453
2023-12-07 13:03:52.267308,44.91369525433375,-9.427366078770625,-4.157487960745521,16.868863902195077
2023-12-07 13:03:52.536055,31.38337305345336,-6.626296378020838,-2.909775209853292,11.738447990026163
2023-12-07 13:03:52.578982,7.846314186753984,-1.6432738061461698,-0.7212965712078315,2.950746480497356
2023-12-07 13:03:52.984137,6.987265067678107,-1.3885485900309538,-0.6277938517264706,2.7204035691829143
2023-12-07 13:03:53.367628,1.0537932905906653,-0.1758706850242392,-0.0826656484119278,0.4510463113965655
2023-12-07 13:03:53.607250,-0.2241898510650946,0.0518754930393369,0.0299379301473378,-0.0793261401635039
2023-12-07 13:03:53.758796,-12.742987036499574,2.7762526365216,1.2071318593035072,-4.661412397195246
2023-12-07 13:03:53.938668,-6.78101294994391,1.49429111152421,0.6508574638669344,-2.460091831530752
2023-12-07 13:03:54.263541,18.31876987302653,-3.973303688092145,-1.7068261641675886,6.720037079395343
2023-12-07 13:03:54.606209,10.398336742088263,-2.27505876781446,-0.9660044250143056,3.789438201293217
2023-12-07 13:03:54.733484,10.249824740559768,-2.2342369200002223,-0.9494939981948408,3.745568839121869
2023-12-07 13:03:54.929489,7.031896169996292,-1.552497486603979,-0.6492876750824141,2.54466548465378
2023-12-07 13:03:55.149846,-4.555824993539749,0.988786453651548,0.4436933595797803,-1.6723819968845772
2023-12-07 13:03:55.516877,15.473603505094186,-3.382822380096385,-1.439028553434728,5.642711166240893
2023-12-07 13:03:55.613142,4.844645112004024,-1.0665062862035433,-0.438944860905256,1.7563210890702268
2023-12-07 13:03:55.795919,-22.81271457346957,5.040491341147556,2.1753314068524308,-8.257216730715706
2023-12-07 13:03:56.515194,1.4165990901166474,-0.3074479450040212,-0.1126641198204987,0.5176807549668885
2023-12-07 13:03:56.578654,13.404326867023158,-2.967844408158689,-1.2466652007421015,4.841197942707471
2023-12-07 13:03:56.666494,-13.37638153161138,3.0177853410036084,1.2970832445307658,-4.765289129395025
2023-12-07 13:03:56.941532,-10.886768724125105,2.4589370683634475,1.061221242817506,-3.875294299208044
2023-12-07 13:03:57.002291,-3.652582602581774,0.8578885974477636,0.3779696312977379,-1.2607429607671563
2023-12-07 13:03:57.106050,-18.679078687527056,4.264718955998069,1.8138823556173933,-6.5909010968095965
2023-12-07 13:03:57.729585,-3.145278528814623,0.7209827387907648,0.3275349361109922,-1.1080835298349487
2023-12-07 13:03:57.850804,-1.612435220562001,0.3872975043932509,0.1843655925760276,-0.5472277689445844
2023-12-07 13:03:57.885764,-34.21476088654904,7.837501773179113,3.308716047339426,-12.039063986755703
2023-12-07 13:03:57.936380,-22.69268301224349,5.214991109413873,2.207414746235987,-7.964750070716855
2023-12-07 13:03:58.074936,3.213211419509337,-0.7077578394254037,-0.2742550051344288,1.1631315791201715
2023-12-07 13:03:58.235413,4.463744997304486,-1.0120508588142012,-0.3964887883739135,1.5808773053557126
2023-12-07 13:03:58.300835,-0.2207456444818018,0.0673593769139646,0.0545678846894848,-0.0592963799807624
2023-12-07 13:03:58.362884,0.0407874457370592,0.008718752008036,0.0303999974439248,0.0342421374371418
2023-12-07 13:03:58.642925,14.77752522347934,-3.4088044493046947,-1.3893596199694902,5.166676839669905
2023-12-07 13:03:58.857460,-1.396278580194278,0.3585852770316094,0.1730702825501689,-0.4457223117201704
2023-12-07 13:03:59.084299,-21.821736018292565,5.093603355080401,2.142134518191852,-7.561661343680693
2023-12-07 13:03:59.163775,-4.760155876437625,1.1153697302483352,0.4945154649665063,-1.646310100610258
2023-12-07 13:03:59.231526,-19.31172398047345,4.529807682757518,1.9044817772499087,-6.664844293070069
2023-12-07 13:03:59.415520,-12.114329882501258,2.856312780562237,1.2105279543411351,-4.163628265595858
2023-12-07 13:03:59.511641,22.30612947960189,-5.189858022337373,-2.117593448822908,7.744884722097473
2023-12-07 13:03:59.820132,-10.999470238850911,2.5913894422745147,1.1029543877349348,-3.78333249670816
2023-12-07 13:03:59.894648,-8.603590501657095,2.0206359750561846,0.8698757081956741,-2.967723405276752
2023-12-07 13:04:00.715827,22.70421411406815,-5.303188453360501,-2.158227372749323,7.857355420859591
2023-12-07 13:04:00.801655,-3.8361711667110887,0.9228588896482712,0.4124971583670996,-1.2976891021374848
2023-12-07 13:04:00.897538,6.085848938203079,-1.4059137827223511,-0.5482620647341591,2.123381211460573
2023-12-07 13:04:01.516997,21.3662508717727,-4.960845450845149,-2.0227082965375147,7.431115855204394
2023-12-07 13:04:01.653727,-8.539213174996236,2.066739380932281,0.8758985035368868,-2.869633307090554
2023-12-07 13:04:01.762505,-18.4220558056943,4.371701001057044,1.8309800595454144,-6.295381470522063
2023-12-07 13:04:02.329136,-5.974276315473962,1.4397184119100344,0.6236565524968882,-2.0163337628480296
2023-12-07 13:04:02.575244,11.06520804563472,-2.588758800230066,-1.0316987976920216,3.8226000270028
2023-12-07 13:04:03.369680,-1.7032160001330492,0.4531324937777509,0.2130235233525513,-0.5240069794078118
2023-12-07 13:04:03.930558,-14.113032279447228,3.397284751962255,1.420653700146468,-4.763815055290064
2023-12-07 13:04:04.104747,19.21106129156314,-4.5142759074671375,-1.8226727549194548,6.614331313915568
2023-12-07 13:04:04.455526,29.96134114086344,-7.069378816156194,-2.869407973908209,10.28135429268093
2023-12-07 13:04:04.800831,8.535908794261948,-1.9993221558648384,-0.7868668472146624,2.945242623878716
2023-12-07 13:04:04.967224,2.794499579779561,-0.7931754922117173,-0.2545315130766814,0.9570715977320324
2023-12-07 13:04:05.004460,21.975806104555552,-5.725298307624487,-2.196123739213544,7.33662105680246
2023-12-07 13:04:05.118822,24.600145531490977,-6.388215706238635,-2.4592737406630896,8.209835736590966
2023-12-07 13:04:05.369232,-2.565016605078453,0.8261277781692601,0.3388537024641752,-0.8175715531781028
2023-12-07 13:04:05.418346,13.43841323201739,-3.2972807227577903,-1.2828740721160596,4.504743623296489
2023-12-07 13:04:05.452487,25.014002895257835,-6.431819038826209,-2.488014710363729,8.349471494280012
2023-12-07 13:04:05.637551,-8.848932264753875,2.2805566847793326,0.9407158290468746,-2.9129458738970104
2023-12-07 13:04:05.921943,-2.6511892601922016,0.6708587382645997,0.3099024917091609,-0.8521973241592647
2023-12-07 13:04:06.143128,15.188071464280153,-3.949289914871032,-1.5029084579239165,5.07986252686321
2023-12-07 13:04:06.285012,-7.326668514153232,1.905327300433033,0.789809237847577,-2.406276374937997
2023-12-07 13:04:06.545896,-21.50218361931946,5.774893355501145,2.2720158125934287,-7.113631648116089
2023-12-07 13:04:06.708023,8.088542841828918,-2.0102243659879857,-0.7605985247491434,2.7221477555115383
2023-12-07 13:04:06.882115,29.356869490499697,-7.923747755703039,-3.0074673047338245,9.781141958392787
2023-12-07 13:04:07.084882,0.0582611104024593,-0.0871925478767227,0.0220568164850808,0.0465172513499997
2023-12-07 13:04:07.146305,-20.08018317957102,5.393958799463558,2.124345376532905,-6.641516070612261
2023-12-07 13:04:07.232711,-21.37127725211511,5.857480206723649,2.282656232955425,-7.066702531128797
2023-12-07 13:04:07.670292,-22.588607206973045,6.53744163519945,2.4831945211687043,-7.459631031170195
2023-12-07 13:04:07.706685,-11.851517704474649,3.4420814418263888,1.3255555811000377,-3.899656152343713
2023-12-07 13:04:07.938039,-21.40243237778206,5.568472638265887,2.2225856370779487,-7.087153334752528
2023-12-07 13:04:08.086983,-29.550589839081223,7.852023749194228,3.086954750698172,-9.79110372526961
2023-12-07 13:04:08.122207,-13.837919063907744,3.878662338581224,1.5103916486230249,-4.563126368742833
2023-12-07 13:04:08.218732,-3.144499538949389,1.011521017487768,0.4029502787219396,-1.010574512601269
2023-12-07 13:04:08.349274,-1.8677725439219448,0.2931003381296494,0.1911253359539522,-0.5989000397227989
2023-12-07 13:04:08.447307,-14.783738457580798,3.767045211984768,1.5305600951173468,-4.889778531754065
2023-12-07 13:04:08.595411,-15.555595955170984,4.129903182226537,1.643162795818558,-5.141247878732545
2023-12-07 13:04:08.716365,-7.369512698583486,1.678203254359646,0.7410759459752484,-2.430169810352065
2023-12-07 13:04:09.058230,-12.740340185640276,3.3900534176548254,1.3543266103232277,-4.205765691560421
2023-12-07 13:04:09.191385,2.300994844744716,-0.5688255005831988,-0.1877343072890566,0.7936961173930961
2023-12-07 13:04:09.288222,12.336622003939173,-3.716989849410968,-1.323701279064021,4.112647087778026
2023-12-07 13:04:09.395791,-9.364969497787074,2.326999241202099,0.9706487622511654,-3.0900826739539244
2023-12-07 13:04:09.618826,-25.05055581765676,7.208868891413355,2.737277423896864,-8.279304419154018
2023-12-07 13:04:09.857053,-23.629011446560725,7.234734829272037,2.675728263481431,-7.793848682134172
2023-12-07 13:04:10.009725,-10.400846536753235,3.175579528917392,1.1975503784547208,-3.4160639703296543
2023-12-07 13:04:10.359343,11.936906719002844,-4.056422111815693,-1.3780820314721098,3.9642197709583695
2023-12-07 13:04:10.459320,27.61205153514617,-8.839587886940643,-3.123984211043742,9.152727392127646
2023-12-07 13:04:10.675117,20.82127029891653,-6.38614456970451,-2.2875827412553056,6.917183767843852
2023-12-07 13:04:10.734439,17.48196946733355,-5.104967564929395,-1.8606857783142507,5.820218492425579
2023-12-07 13:04:10.771009,17.27530421816706,-5.129546553585143,-1.856514178151213,5.748709928304297
2023-12-07 13:04:11.232721,-5.046053070431397,1.64369658773697,0.6208318992608789,-1.6414761123930697
2023-12-07 13:04:11.358875,-6.38441015645178,2.039063481964589,0.7667707081777834,-2.0851500160204792
2023-12-07 13:04:11.569505,-4.131508944375644,1.200607711911261,0.48364874657106,-1.3445972262799413
2023-12-07 13:04:11.924361,-12.559074108963856,3.979767162294839,1.4656009774465582,-4.127672571153818
2023-12-07 13:04:12.163816,14.665831960950934,-4.363227858313299,-1.5740294435047697,4.882784989476455
2023-12-07 13:04:12.857502,11.964983872254514,-3.501924850159745,-1.2657914719745176,3.989738397210411
2023-12-07 13:04:13.051419,-22.589913286979428,7.42202245361602,2.6620453847750074,-7.436242414388008
2023-12-07 13:04:13.745450,-16.964252002925676,5.330029408899064,1.9559334749048365,-5.586640147482541
2023-12-07 13:04:13.977813,-10.156376226715702,3.213968664212955,1.189251476382298,-3.334652847782227
2023-12-07 13:04:14.079364,-14.456345729545015,5.205560324049656,1.811169424173294,-4.7359512531849015
2023-12-07 13:04:14.438613,-10.441968500094484,3.935229208991789,1.3541506676089896,-3.408880518905205
2023-12-07 13:04:14.774871,-6.052685878613239,1.818932239609654,0.700915203025572,-1.98173852833128
2023-12-07 13:04:15.264450,9.767666513591136,-3.603669437463064,-1.186901235442021,3.2352324030430006
2023-12-07 13:04:15.454026,14.82633078254864,-4.639143940967087,-1.643354175687231,4.926148872267638
2023-12-07 13:04:15.549520,-11.432559091943668,4.349750407832151,1.4865334196421207,-3.734160169885851
2023-12-07 13:04:15.612421,-13.969527195018228,4.595368208357653,1.657042383669758,-4.591564847404493
2023-12-07 13:04:15.723741,14.396995885873617,-5.048494850723734,-1.7108822578832898,4.765471170006317
2023-12-07 13:04:15.936731,13.933131845965734,-4.655668374678082,-1.6065918494833882,4.619902111966151
2023-12-07 13:04:15.979069,11.661313208363104,-4.523802335001452,-1.4725522097002388,3.849182328124704
2023-12-07 13:04:16.208290,19.18843906563092,-7.167797685194367,-2.3844949181163013,6.329098390643026
2023-12-07 13:04:16.496330,-7.3123013422098575,2.736427461709668,0.9499918208612508,-2.38363955719042
2023-12-07 13:04:16.580688,-22.8368939552646,8.150130739289436,2.821214109059183,-7.500583389087389
2023-12-07 13:04:16.871052,1.84321727082716,-0.9518146326437285,-0.2592909109027888,0.6170404166970759
2023-12-07 13:04:17.489890,23.226998977645607,-9.74634817255295,-3.1219171485410784,7.619458812705663
2023-12-07 13:04:17.519551,6.218131180925903,-2.1226860624882664,-0.7144268943211135,2.0688981012961536
2023-12-07 13:04:17.878641,2.930519121548792,-1.1295355537777252,-0.3508706720517573,0.9800355231052252
2023-12-07 13:04:18.002448,13.381962667236465,-5.423420852871811,-1.748421544671573,4.403063113777251
2023-12-07 13:04:18.180202,11.504213400451626,-4.521339295788825,-1.470259465820574,3.792025908765316
2023-12-07 13:04:18.260689,7.476019635790363,-2.308969384369345,-0.8145166551219325,2.490640524907575
2023-12-07 13:04:18.348821,15.494387958187582,-5.474853515559334,-1.859707975983153,5.120947633493013
2023-12-07 13:04:18.463920,22.311289995681275,-8.698670085430715,-2.8607421890889904,7.339609216597206
2023-12-07 13:04:18.573648,16.622021013619918,-6.223391128074094,-2.071525679643611,5.480373995040144
2023-12-07 13:04:18.723533,-2.676865252434608,0.5234005192405464,0.2583082498409,-0.8799572137042132
2023-12-07 13:04:18.828296,-5.614376168110719,1.0376066366787036,0.5043224938848512,-1.8651427735171973
2023-12-07 13:04:19.203873,6.641540570975141,-2.6285100792408085,-0.8453529846594857,2.19390333468925
2023-12-07 13:04:19.335294,-9.019841556774637,4.175330805427564,1.3258196348651656,-2.924026218025812
2023-12-07 13:04:19.543449,-13.573703668910175,5.788086967358899,1.8796499956523445,-4.424363080951241
2023-12-07 13:04:19.574751,1.6632030188976277,-0.5080585707434074,-0.1652246187497147,0.564943139632915
2023-12-07 13:04:19.788215,-8.046763034265966,3.1400808976914707,1.060350936338288,-2.626965150844701
2023-12-07 13:04:19.918580,-1.5359223762371994,0.4078784294783175,0.1775081009493752,-0.4965184004397631
2023-12-07 13:04:20.119415,4.064162322288968,-1.1883032813242962,-0.4227269500856281,1.3606382955269387
2023-12-07 13:04:20.244437,-8.428730598894813,4.212583214109642,1.3031612388966276,-2.723030564274036
2023-12-07 13:04:20.435561,9.666775974116922,-4.364489326735708,-1.3574424691101703,3.166272012376281
2023-12-07 13:04:20.504150,-18.425004755379568,7.967139331716939,2.5642913318037253,-6.0093152091435575
2023-12-07 13:04:20.581500,-16.816274092412318,7.600080830815575,2.410920994600036,-5.472974526278033
2023-12-07 13:04:20.650380,6.595152969795437,-2.702409447983801,-0.8634583611525213,2.1725980034134644
2023-12-07 13:04:20.928991,9.206617297500172,-4.332947036760787,-1.330648891134623,3.009421010885246
2023-12-07 13:04:20.954158,13.920790394812684,-6.705827881366888,-2.053256229532189,4.538969449916291
2023-12-07 13:04:21.504604,4.263300990575359,-1.484603572652421,-0.4979442601935321,1.4166572748409916
2023-12-07 13:04:22.130083,-3.569952181534996,1.6731121816056942,0.5354136162752463,-1.1517157982732744
2023-12-07 13:04:22.285313,9.804505512116007,-4.510215644932931,-1.3981436204887976,3.2061898952737886
2023-12-07 13:04:22.429555,-2.234858751225699,1.0662072027968807,0.3439858635830112,-0.7167412628724621
2023-12-07 13:04:22.693847,-7.011151024742634,3.5250889097671534,1.087013649992891,-2.265077184159592
2023-12-07 13:04:22.796545,-8.507071613806067,4.489429775312567,1.3605368493626522,-2.7437634560180704
2023-12-07 13:04:23.084585,-6.124442723647037,2.96697792915117,0.9269774923255972,-1.9813861766775431
2023-12-07 13:04:23.194708,16.889028253411112,-8.226318769215185,-2.516726101048041,5.499268497170126
2023-12-07 13:04:23.797989,9.56530464106166,-4.461519942958471,-1.3783786300518637,3.1250736966590744
2023-12-07 13:04:24.018717,-3.6547266883684495,1.5493004958570742,0.5109284873856242,-1.186210943379706
2023-12-07 13:04:24.125193,13.054976475131848,-6.799250958293319,-2.0362610438772104,4.238068823711815
2023-12-07 13:04:24.572170,2.988007047341366,-1.186129574572537,-0.3788864410676302,0.989044428560079
2023-12-07 13:04:24.911671,-15.953991567204548,8.513079582871848,2.5577578769804257,-5.152492830637726
2023-12-07 13:04:25.306933,-10.369915593850244,5.574902349167707,1.6750911193432312,-3.344759720619904
2023-12-07 13:04:25.430486,-2.589441752833787,1.555536032183414,0.4610694809538058,-0.8234759258825884
2023-12-07 13:04:25.475250,-0.3907923674512256,0.1958567084152504,0.0705905278486818,-0.1184457605193577
2023-12-07 13:04:25.764746,-2.58409342140238,1.1102034147686846,0.3663826398728415,-0.8365439914987564
2023-12-07 13:04:25.995663,-8.954506369052266,4.570212761956529,1.3957166137588974,-2.895581812025583
2023-12-07 13:04:26.108896,-15.992735639814692,8.29881844214746,2.513113669320863,-5.173542206485108
2023-12-07 13:04:26.450374,4.712758878148138,-2.5831782153430622,-0.7564358752096851,1.5303018983924046
2023-12-07 13:04:26.875143,-0.5360362437290154,0.060711667748105,0.0478208569676683,-0.1731049907396499
2023-12-07 13:04:26.935028,-16.328608246128905,8.690613970823263,2.610977736122739,-5.2756272287347326
2023-12-07 13:04:27.039958,1.3531241977327877,-0.4811748853914328,-0.1555268824987858,0.4531943658957085
2023-12-07 13:04:27.168266,-9.433343364944765,4.7778228339960265,1.4609696932219465,-3.052753926049036
2023-12-07 13:04:27.434869,-7.290185455006356,4.499111852461238,1.3013295677539998,-2.3311490728875373
2023-12-07 13:04:27.511391,3.287059618414258,-1.6136595829774376,-0.485824170687878,1.0752702339871962
2023-12-07 13:04:27.645031,-19.073061042107724,10.084983714238463,3.033557549633086,-6.166205727030817
2023-12-07 13:04:28.075179,1.0907636041193804,-0.5171345557481245,-0.1513749294093634,0.3621671502242495
2023-12-07 13:04:28.900732,2.911380669935055,-1.1304759002657845,-0.3664271961287693,0.9628522673995537
2023-12-07 13:04:29.037176,-14.718448918456842,8.019164671571703,2.3927972381123053,-4.749105657527432
2023-12-07 13:04:29.385861,5.158693730573795,-3.2371830166768785,-0.9167727493110108,1.6600399992638246
2023-12-07 13:04:29.493483,14.279242544453316,-8.33271897363046,-2.420707608069085,4.603127869927303
2023-12-07 13:04:29.671743,15.867329733324652,-9.15751860901245,-2.438250164112789,5.2998382918209215
2023-12-07 13:04:29.748083,-9.63520817069106,5.413493655119523,1.5822852612197291,-3.118178278447958
2023-12-07 13:04:29.912409,-1.0840671328884133,0.544815795240549,0.2176257476889656,-0.3108938490689323
2023-12-07 13:04:29.989572,13.146274272680932,-7.597460852095029,-2.014524528623443,4.396791957155635
2023-12-07 13:04:30.112692,6.67038532838395,-3.88556402308556,-1.005108227305987,2.2485278653352414
2023-12-07 13:04:30.248910,-7.601672375475305,4.306243194238336,1.2086587303357237,-2.4960347662421154
2023-12-07 13:04:30.493122,-5.17221663697215,2.8641358878793923,0.8779364774801175,-1.645703900721307
2023-12-07 13:04:30.553504,5.869943598541673,-3.447072171208984,-0.8608055078121672,2.0010778774446694
2023-12-07 13:04:30.700657,-4.688672278738686,2.6436289986185475,0.7475592186983852,-1.536218043883106
2023-12-07 13:04:30.995552,-2.341421793287761,1.2656320310141551,0.4131685393406549,-0.7284153988788643
2023-12-07 13:04:31.308482,6.186145521129127,-3.635937304996709,-0.9030984814608288,2.112442460399728
2023-12-07 13:04:31.385454,0.5283610706772409,-0.3866733643802871,-0.0273698643607007,0.2298603271000556
2023-12-07 13:04:31.417776,11.822450352850687,-6.880806974171783,-1.7681131220911392,3.994714135792136
2023-12-07 13:04:31.657207,8.225737150300995,-4.767375907940024,-1.257798293799514,2.754987186417095
2023-12-07 13:04:31.705789,10.37175769236477,-6.054206042938706,-1.5374510389728906,3.517670344117584
2023-12-07 13:04:31.968445,12.39530243596873,-7.209359933117407,-1.857573183893924,4.184588025864155
2023-12-07 13:04:32.098747,-12.264878336527063,7.204455425069511,1.7160777989803373,-4.246136032100929
2023-12-07 13:04:32.289767,-11.251396422815525,6.580156137375261,1.5999865678883876,-3.8711604193454128
2023-12-07 13:04:32.445543,4.276996239041887,-2.5230396138513296,-0.624506611505789,1.4615209769433335
2023-12-07 13:04:32.642573,-8.139199493833374,4.698494123007961,1.2092975375413562,-2.7513414109709133
2023-12-07 13:04:32.759420,-9.074592210864116,5.290721180707621,1.3006251220429772,-3.1120723661174137
2023-12-07 13:04:32.895426,-11.788681326581278,6.911921426570066,1.6600544244360302,-4.071324522298404
2023-12-07 13:04:32.977899,-15.612155817585151,9.148491638593187,2.2122810404674293,-5.380198180018047
2023-12-07 13:04:33.077448,3.5634589057646484,-2.0037624309654283,-0.6209527352403822,1.125136945124201
2023-12-07 13:04:33.113373,0.592712743096472,-0.2903814670166119,-0.1683190877816565,0.1299901048017797
2023-12-07 13:04:33.163368,-9.32347668698246,5.456310454291984,1.3163134995679058,-3.2160361979841774
2023-12-07 13:04:33.248409,-6.873942780398482,4.038498437700117,0.9476285976302132,-2.3912923049954657
2023-12-07 13:04:33.637431,-4.414362899020726,2.6215864537745563,0.5709218685815012,-1.569192312474093
2023-12-07 13:04:33.948230,10.159589548734523,-5.90732804427586,-1.5312135239886235,3.422417604104562
2023-12-07 13:04:34.086996,2.8755274108532864,-1.6898633790478377,-0.4370104116659334,0.967927422466756
2023-12-07 13:04:34.133306,-5.751465854324105,3.368627071669094,0.797473301018537,-1.9959745312677408
2023-12-07 13:04:34.468153,4.156503527021664,-2.3914776416460577,-0.6687334875468102,1.3631909147598305
2023-12-07 13:04:34.968482,13.871076494630133,-8.148965192646916,-2.000416735298813,4.754820044302926
2023-12-07 13:04:35.218965,-5.408025267778101,3.173174422555066,0.7414140925433372,-1.8843968613890087
2023-12-07 13:04:35.664935,0.6483656187162359,-0.2878440986119637,-0.2132449666656439,0.1148579620876142
2023-12-07 13:04:36.255263,6.858172724166744,-4.1118932262608014,-0.9250765693423046,2.4119373286541674
2023-12-07 13:04:36.550805,-5.05814821412186,2.911785804372251,0.744805332430667,-1.714718692192385
2023-12-07 13:04:36.587474,3.170257766804815,-1.961350533779716,-0.3862646551725626,1.1551711889126803
2023-12-07 13:04:36.859011,7.399129433363289,-4.470836978070382,-0.9628423617099446,2.6344774632658887
2023-12-07 13:04:37.010206,-6.815016540289775,4.066761576764217,0.8745239833429784,-2.4309633751860886
2023-12-07 13:04:37.527848,-6.39466307549838,3.908339003629971,0.7287858942163248,-2.365779941579126
2023-12-07 13:04:38.147982,9.8709736476434,-5.851632172324437,-1.3838787241089108,3.421371013488129
2023-12-07 13:04:38.748332,8.14802236302534,-4.929511918703865,-1.0521799564754286,2.9082559825724776
2023-12-07 13:04:39.107879,-6.588305204104912,3.9915343228634153,0.7850597930942433,-2.4058752506259937
2023-12-07 13:04:39.284929,-8.278626335552634,5.095219241810868,0.9176563106060348,-3.0877711677995747
2023-12-07 13:04:39.338670,-4.446834129305718,2.7415670881973724,0.472477641616603,-1.675846876022203
2023-12-07 13:04:39.550501,-16.369212269129015,10.115873662321595,1.8069641099533944,-6.11587019830179
2023-12-07 13:04:40.420081,-9.407654400961375,5.703653194691783,1.1299822584567727,-3.428679270281352
2023-12-07 13:04:40.697969,1.0265844609502917,-0.6998350394531149,-0.0872767388013289,0.4114611596883925
2023-12-07 13:04:40.935869,-10.545062015862516,6.51225509632376,1.154925124033204,-3.9470342232336297
2023-12-07 13:04:41.173390,-12.123049378647568,7.455439025127136,1.3631069226996575,-4.505485203981618
2023-12-07 13:04:41.547559,-6.204041175270256,3.758299555385502,0.7350889460656227,-2.269246544489024
2023-12-07 13:04:42.115590,3.217357453356213,-2.071046614153586,-0.3180909240900449,1.240645474379446
2023-12-07 13:04:42.194754,10.95044340494894,-6.724731219037063,-1.309545600005014,4.003993887299586
2023-12-07 13:04:42.383302,3.7598987629229454,-2.1433305838229773,-0.6345033647625445,1.2059923508476955
2023-12-07 13:04:42.905924,3.1475380548141665,-1.8969207216317343,-0.43803423376245,1.0963639252238404
2023-12-07 13:04:43.053742,2.7508131510862937,-1.6919653757005888,-0.3547568890389657,0.9845998453497312
2023-12-07 13:04:43.190210,-6.877789415716229,4.447408458383387,0.5448299933660004,-2.7661191789014734
2023-12-07 13:04:43.284636,-2.9571631538732936,1.9011279778175192,0.2230694582126109,-1.1976564953545903
2023-12-07 13:04:43.388181,1.549628371124832,-1.095115909232848,-0.0796417138960603,0.667471704779269
2023-12-07 13:04:43.462151,-2.6474310693006653,1.577761058286938,0.3154561790433081,-0.9646982535682248
2023-12-07 13:04:43.534624,-1.7630586270276047,1.1245163181500069,0.1253088035492763,-0.7197399005477395
2023-12-07 13:04:43.701783,-4.208759265050429,2.7004886337740386,0.3375501411950314,-1.6874887079044625
2023-12-07 13:04:43.755038,-11.433258027059995,7.315447232361696,1.0042312707729482,-4.509393409442271
2023-12-07 13:04:43.871888,-3.7133997595509056,2.4469586362756623,0.2302778688288901,-1.550995622036309
2023-12-07 13:04:44.036889,11.005414422086206,-7.05460951469008,-1.0327064414428933,4.286393496824383
2023-12-07 13:04:44.246720,9.27199937684634,-6.005299800676622,-0.8167997007718328,3.661105770620984
2023-12-07 13:04:44.395205,5.711302898315916,-3.640341954079824,-0.5759493736005222,2.189071845220886
2023-12-07 13:04:44.489153,7.88899724475234,-5.108302807169526,-0.7028305363491102,3.1082547584009634
2023-12-07 13:04:44.629187,4.7609730361516736,-3.1782789208103,-0.3483296193732648,1.947394038112028
2023-12-07 13:04:44.841531,4.690467498967446,-3.1374323102356545,-0.3380500035097405,1.923343944580293
2023-12-07 13:04:44.951181,4.72821646567708,-3.1270936023057265,-0.3751992007299878,1.9069200734644884
2023-12-07 13:04:45.104612,3.141989357794041,-2.1221096008032605,-0.2210128075681864,1.2945620849842543
2023-12-07 13:04:45.382756,1.5723085802790535,-1.2766285491862286,0.0759284452037891,0.8222322114275236
2023-12-07 13:04:45.405207,-3.049888208269413,1.854013114222003,0.3299277529580606,-1.1429330372729172
2023-12-07 13:04:45.754176,1.3130243836780071,-0.8260795365142892,-0.1767085109387039,0.4649267994990801
2023-12-07 13:04:45.881068,0.3727061733134658,-0.3715567431869069,0.0514094971903066,0.228479916425959
2023-12-07 13:04:46.051216,-10.357197148118706,6.725622469160444,0.8063488799830157,-4.180392288693261
2023-12-07 13:04:46.109707,-7.619081935967712,5.064914001608593,0.4676739394274456,-3.190495554975824
2023-12-07 13:04:46.239212,-4.535895225208175,2.9342914236528,0.3388344398136406,-1.8420854337302448
2023-12-07 13:04:46.343864,-3.166905977514473,1.984476314195468,0.285147894602535,-1.2401103457026876
2023-12-07 13:04:46.863570,0.2804526794044438,-0.2849038449962525,0.0317552484252128,0.1663541006031263
2023-12-07 13:04:46.968267,-4.363186819571961,2.757009760016919,0.3869881660864055,-1.7153037661173185
2023-12-07 13:04:47.166622,1.2536534657677,-0.9794177904666874,0.0119730610431759,0.6113059418398109
2023-12-07 13:04:47.501080,1.401658750260331,-1.016504954803283,-0.0575959033774708,0.6173559749745989
2023-12-07 13:04:47.582100,-11.71428583620313,7.713334701214734,0.8125762498121559,-4.820664520379627
2023-12-07 13:04:47.653664,4.417749682153213,-3.1247444620825786,-0.160611332206521,1.95773003051888
2023-12-07 13:04:48.078285,-4.84802633053154,3.201098018451664,0.3001601694453058,-2.026497031287806
2023-12-07 13:04:48.126187,-5.079981229757266,3.3635405945304435,0.3075312053969602,-2.130093190463118
2023-12-07 13:04:48.206520,12.617369238460313,-8.586324054471659,-0.7017718147093025,5.360002405394976
2023-12-07 13:04:48.281049,3.077466967665753,-2.094160935740153,-0.2069335477701745,1.276822988831956
2023-12-07 13:04:48.365853,-5.974052451506823,4.058777911569615,0.2692189477209273,-2.591170319816838
2023-12-07 13:04:48.758082,9.95470448274986,-6.884818240751695,-0.4571488576046097,4.31894532372688
2023-12-07 13:04:48.974876,-1.3809049613753752,0.9434726459462244,0.0201698836418258,-0.6352612515773836
2023-12-07 13:04:49.145804,-14.074417288841024,9.540789852166233,0.7183679694976877,-6.031391922424022
2023-12-07 13:04:49.181547,-7.028072522226925,4.819876185645777,0.2805522264616039,-3.082433209911568
2023-12-07 13:04:49.473334,-6.31000068195568,4.338986847684909,0.2355887417663385,-2.782236730306435
2023-12-07 13:04:49.758641,-9.9739845740241,6.754285363722334,0.5012613856138249,-4.280458067309892
2023-12-07 13:04:50.750138,-9.24837114558882,6.326730550850585,0.3992793318331646,-4.029454868503272
2023-12-07 13:04:51.343611,-5.1870748617295614,3.498651808678629,0.250357580512098,-2.234029777613296
2023-12-07 13:04:52.313168,-1.2827323292184416,0.7351343570363136,0.1508043838322584,-0.4676138066831037
2023-12-07 13:04:52.523250,7.707159642662393,-5.392834480176252,-0.3060330899356329,3.3889195314607004
2023-12-07 13:04:54.341724,4.058065901633285,-2.8096576093180747,-0.2136420243529748,1.7373747177974344
2023-12-07 13:04:54.751147,14.732194157462995,-10.299865105662947,-0.5485383442146574,6.508535733339239
2023-12-07 13:04:55.405626,0.1176502891423726,-0.1701591677769563,0.0312281621500205,0.0883044362047083
2023-12-07 13:04:55.825067,-6.32049070833294,4.356992456009364,0.2239812838566183,-2.797995539783907
2023-12-07 13:04:55.919519,1.1571299034043625,-0.8328718990121595,-0.0661314767089305,0.492996045630374
2023-12-07 13:04:56.099875,2.5895806515350768,-1.8218166574980552,-0.1268383814286982,1.118684172485331
2023-12-07 13:04:56.522011,3.5689106785677454,-2.557439727899605,-0.1107049685822137,1.599807156031134
2023-12-07 13:04:56.731539,0.0750475406356863,-0.1525776802029231,0.0442145163483783,0.0800426875610872
2023-12-07 13:04:56.882571,8.298720600035924,-5.818888759250783,-0.3148684190216251,3.662329145956866
2023-12-07 13:04:57.153027,-8.2137771791802,5.728792364986337,0.2411791148805806,-3.683335957119519
2023-12-07 13:04:57.769992,-0.2729082383420225,1.0672487169365088,-0.2147273714942513,-0.518917108026798
2023-12-07 13:04:58.040345,-4.313760759375478,3.628547502350064,-0.0217332509293114,-2.343737244973242
2023-12-07 13:04:58.167353,11.583984322791558,-5.943643037909041,-0.7961575540721235,4.121475584378957
2023-12-07 13:04:58.481465,-5.920480593220669,4.256026487624745,0.170997762233197,-3.033366572258339
2023-12-07 13:04:58.736588,9.63181372073405,-6.305435155972332,-0.3976846229478849,4.226998821106523
2023-12-07 13:04:58.784714,16.352850800566856,-10.30497118038525,-0.744684326868139,6.983754189221131
2023-12-07 13:04:59.510597,-5.166538791747202,3.42400129206419,0.1883172682261648,-2.402998001413008
2023-12-07 13:04:59.619742,-8.859009886153826,5.368171508043047,0.416370169884061,-3.706881515634339
2023-12-07 13:04:59.708322,-3.681430137682652,1.9852166218344909,0.210381375213315,-1.4151639287382642
2023-12-07 13:04:59.883064,-2.156575365958844,1.9402998347326443,-0.0312172518898055,-1.3304731155972942
2023-12-07 13:04:59.945060,4.937201873980671,-1.6698004415528578,-0.5092843303641438,1.17799357011262
2023-12-07 13:04:59.987984,4.9364260604611925,-1.6343944758403992,-0.5091445811265176,1.1227924455230802
2023-12-07 13:05:00.051536,-0.1954095274071648,0.3225580484367648,-0.0534428427609339,-0.2123160199709141
2023-12-07 13:05:00.148808,-5.281416296263325,3.338727381560884,0.2299276784842036,-2.38491929527446
2023-12-07 13:05:00.252620,-1.3500238583471211,1.2239760396649064,-0.0133224090382053,-0.923800051538044
2023-12-07 13:05:00.340604,16.177672610317313,-9.99657751909323,-0.839766148265396,7.112814953023403
2023-12-07 13:05:00.467828,3.4484290975877165,-1.53577277682915,-0.302757900377012,1.1028017546785966
2023-12-07 13:05:01.028527,11.904224153554503,-6.451390854362076,-0.8044614588199434,4.712948205764917
2023-12-07 13:05:01.057269,18.29110416465103,-7.971328634165383,-1.588681694275346,6.020514286073862
2023-12-07 13:05:01.116884,-0.2286716020279416,0.8095528336123876,-0.1659246937790452,-0.386606926461894
2023-12-07 13:05:01.507968,-10.729842214109125,8.108852451843727,0.2724857892939408,-5.820459046127944
2023-12-07 13:05:01.741926,-16.04432428734701,10.06823348321272,0.8110467621314184,-7.428580883982252
2023-12-07 13:05:01.796890,-5.477123388522553,2.969794232761364,0.346548001396157,-2.22863156657085
2023-12-07 13:05:01.893086,11.840011478372388,-7.970499696354517,-0.5757317424028598,6.008846200511588
2023-12-07 13:05:02.011594,11.193502894797362,-4.683814091678135,-1.0653415701509974,3.799907475084544
2023-12-07 13:05:02.102841,3.130899163405677,-0.8264016757874398,-0.4002801669131581,0.7300114591105124
2023-12-07 13:05:02.259664,6.662640297340265,-4.762085349789587,-0.2691833004578841,3.49294361029506
2023-12-07 13:05:02.307527,7.581575030009525,-1.986576581808344,-0.9349068325578924,1.7414385504578669
2023-12-07 13:05:02.497222,-2.090921787508308,0.8989491959232622,0.1841738011072839,-0.8103037885549856
2023-12-07 13:05:02.814922,1.3495242578502975,-5.968201788156131,0.8500545602775242,3.955683419761187
2023-12-07 13:05:03.002030,3.969226323939194,-2.411503171238823,-0.2653233263838079,1.8922373671692896
2023-12-07 13:05:03.075126,-4.624484118984791,5.439926091236348,-0.1951552327764893,-4.061010323434775
2023-12-07 13:05:03.406356,-5.755030909680632,2.5505438197231824,0.538830562037249,-2.3042738260348616
2023-12-07 13:05:03.432122,-4.695815405903367,2.465308678799522,0.3411054450309928,-2.0117612617594505
2023-12-07 13:05:03.492857,-4.654764900749596,1.6142041033060606,0.4949720468216707,-1.4749938370232862
2023-12-07 13:05:03.628218,-13.797023122490373,4.74618200001642,1.505227452960946,-4.284185490324883
2023-12-07 13:05:03.853136,-5.396521734589984,3.873184841119469,0.2713894462918383,-3.320749777659276
2023-12-07 13:05:04.029108,1.4438107049333744,-4.136026784373554,0.3986358669985156,3.2640335126423974
2023-12-07 13:05:04.065541,6.149650803234422,-5.086598220548843,-0.371373320596001,4.917463409404546
2023-12-07 13:05:04.095251,1.3117884393205386,0.7721114364061152,-0.5310143492884244,0.3038509362000572
2023-12-07 13:05:04.389703,-10.42627870312836,7.032444729171983,0.5005893311303881,-5.488843846877063
2023-12-07 13:05:04.767835,15.272368634634152,-8.606073226415623,-1.1685869021633415,7.29564550944575
2023-12-07 13:05:04.862361,9.270699685185011,-3.3059671116430325,-1.0737460140349289,3.197454318120261
2023-12-07 13:05:05.151198,-2.3227524009683025,0.6402937147605755,0.2766575173229,-0.6692572171066179
2023-12-07 13:05:05.174964,-1.4350501362443748,5.968575928823329,-0.8020543717217306,-4.340426373015835
2023-12-07 13:05:05.661009,0.5254379880978716,3.666935311057416,-0.6982845650496065,-2.7770782545872863
2023-12-07 13:05:05.758591,-6.337377313477728,3.957145886669229,0.4624025815676626,-3.658161651953196
2023-12-07 13:05:05.877088,3.9897587584338745,-0.312077860677542,-0.6929030890572044,0.7316681657087639
2023-12-07 13:05:06.276903,15.84517515255229,-4.72724126607131,-2.033067378378424,5.079600398962923
2023-12-07 13:05:06.518215,20.28510856698458,-5.878924435704942,-2.600336425160994,6.247803290195284
2023-12-07 13:05:07.137279,4.370302100470576,-2.648303130828088,-0.3064784217245695,2.175928383485885
2023-12-07 13:05:07.167264,-15.005510662629456,2.938556510512751,2.177413899395084,-3.836105471027897
2023-12-07 13:05:07.759270,1.1016092419526686,-3.223893609398516,0.2450285895478895,2.8814801938853383
2023-12-07 13:05:08.399985,2.919986846549887,-1.469317468357384,-0.377837320774975,1.8158484767746448
2023-12-07 13:05:08.474375,-10.315179408008207,5.292067612155512,0.9444119841095516,-5.0402066191156525
2023-12-07 13:05:08.662591,-3.6263609983761538,0.2740944887067354,0.6162145470405028,-0.7570503109585905
2023-12-07 13:05:09.862700,-13.024276030515535,6.2934281465659305,1.3124205208136177,-6.326458823733279
2023-12-07 13:05:10.557550,-9.904474095199504,-2.13001781241517,2.1933218754407315,0.058932002493662
2023-12-07 13:05:11.009657,10.41828298547204,-4.818272161982494,-1.120508728164047,4.922824280370226
2023-12-07 13:05:11.849960,-12.0504669823494,7.083498390503086,1.0435243829399246,-6.977819321102407
2023-12-07 13:05:12.289806,16.263416142512497,-8.060991022351967,-1.7241592194253226,8.453574444582031
2023-12-07 13:05:12.586953,16.036880287376515,-9.450385346912768,-1.4476048313998693,9.431728602873642
2023-12-07 13:05:12.719265,0.6660168453985765,-2.0493306401457274,0.1542645199530351,1.846555457322162
2023-12-07 13:05:12.863794,7.40031841478289,-5.030656062359207,-0.6077573637551663,5.061338023867923
2023-12-07 13:05:13.499160,-6.734961915230867,-0.8357747612806267,1.6828105521513157,-1.8851297704228
2023-12-07 13:05:13.633578,0.139728361194104,-3.9933321376469175,0.6868897049109324,2.6578500492449453
2023-12-07 13:05:13.728777,18.877367426335503,-6.897807907603824,-2.430213680830318,8.11463395511406
2023-12-07 13:05:13.903508,-10.818702065724446,1.9197880409447523,1.705670352874403,-3.1321316194539968
2023-12-07 13:05:14.043690,-24.26626536725353,3.144112301275124,3.978784840090788,-5.8796091273735005
2023-12-07 13:05:14.241009,8.880255102830537,2.9007260214132087,-2.0797470029777325,-1.1829478313514366
2023-12-07 13:05:14.565716,-17.29376086332545,2.347138387254784,2.902632082864438,-4.706094855325025
2023-12-07 13:05:14.667238,0.9877844464677212,1.954922229315377,-0.4680040216186718,-1.567437951154362
2023-12-07 13:05:14.883429,0.106963285417384,-4.868398515767652,0.6492182046399936,4.248686729074364
2023-12-07 13:05:14.946174,1.3268534612205405,-7.291581296442611,0.7797065524142965,6.445278765298498
2023-12-07 13:05:15.012604,0.7560217195525356,-6.6849958260224,0.8390142209190271,5.64607558844011
2023-12-07 13:05:15.105230,-9.24971546630174,2.296452159173444,1.378875357897907,-3.310296792280807
2023-12-07 13:05:15.385994,-4.012442377861105,3.638728527470986,0.1904795421406815,-3.580805513514176
2023-12-07 13:05:15.564214,-7.082026732030753,-2.653741633408873,1.722575746014528,1.0460257741027914
2023-12-07 13:05:15.647993,-6.113461078312169,-0.7640177778215422,1.263577563009562,-0.3843867799547381
2023-12-07 13:05:15.748308,3.4617791967641587,4.1429205518641545,-1.2407944334838408,-3.071463861928279
2023-12-07 13:05:15.835507,15.352527743611194,-0.7167363005093258,-2.780283519245091,2.9342413646224723
2023-12-07 13:05:15.962586,15.85431614782232,-3.254802485913352,-2.552021447622008,5.383312431873452
2023-12-07 13:05:16.049789,-8.85291852671343,1.7641137230618629,1.414043184082538,-2.9553669881157005
2023-12-07 13:05:16.286837,-13.348106383771428,1.6414453765985575,2.3062986445194387,-3.6985187288006696
2023-12-07 13:05:16.418769,-5.031120205460938,3.849162697669793,0.4075812801830432,-4.1907223503623126
2023-12-07 13:05:16.757327,-13.103702666787036,7.876213778690721,1.3865619827796485,-9.07737960764321
2023-12-07 13:05:16.948629,-5.76407590793669,4.502514042785718,0.4645073827851215,-4.924831785993406
2023-12-07 13:05:17.456982,1.7538520974117786,4.443722820535593,-0.9838170596171408,-3.4853399003469554
2023-12-07 13:05:17.771101,-19.96598983437166,8.614866659337675,2.591155848643074,-10.878020083589943
2023-12-07 13:05:17.814141,-18.50838490053563,3.327522155269276,3.075904741844007,-6.143364493638494
2023-12-07 13:05:17.913234,11.1496606358528,-8.78287588789933,-0.911659485967819,9.552050271370378
2023-12-07 13:05:18.131269,-1.7730617762105148,-6.380307300577949,1.219548879647614,5.25679786084605
2023-12-07 13:05:18.163622,-10.332010327247485,4.44405448453998,1.3572877548522173,-5.712083060057552
2023-12-07 13:05:18.479634,25.374528566801747,-1.32134301124806,-4.690292575875581,5.580403987313425
2023-12-07 13:05:18.586061,10.619442829000649,-4.594576259113008,-1.4177508735255184,5.924634000193096
2023-12-07 13:05:18.618741,-19.14683743345385,8.591836092583799,2.459054611621472,-10.819676476855305
2023-12-07 13:05:18.703469,18.1664059676946,9.878668819443249,-4.888061031391253,-5.359836585204567
2023-12-07 13:05:19.400532,36.58258416447687,0.3906622121693111,-7.105699317570583,6.182869597761647
2023-12-07 13:05:19.445572,7.364220998058936,-0.0609984998193608,-1.4217850446353937,1.3820659247266454
2023-12-07 13:05:19.666257,-11.904028219342498,-0.8904542951923823,2.3981777915782314,-1.3076996562335286
2023-12-07 13:05:19.840808,-16.589914986971458,-3.963092403252714,3.728089236218291,0.540390480160971
2023-12-07 13:05:20.165972,-9.285804687293403,-2.6557272149577527,2.1413675624503186,0.6950555125813834
2023-12-07 13:05:20.239987,-6.993293183080715,-3.61209618897339,1.8424443330130416,1.8939522431284763
2023-12-07 13:05:20.480991,-6.637100448838531,1.045290200460457,1.1312806417825343,-2.1400070423983903
2023-12-07 13:05:20.893003,5.185584723885439,6.776011858715576,-1.958653365488604,-4.956406189980919
2023-12-07 13:05:21.015583,5.749343466423761,0.5413777361587653,-1.20251964048709,0.6077074161125534
2023-12-07 13:05:21.400184,-5.897338382068691,4.840278635297532,0.4650211708575304,-5.345270546730156
2023-12-07 13:05:21.488201,-23.05685351433789,9.381225196794349,3.1486662641392664,-12.436620672683818
2023-12-07 13:05:21.614811,-13.201616851192908,-6.479870301020112,3.4333294060030903,3.3097831023936912
2023-12-07 13:05:21.833221,12.892178611209577,-0.5019288175807173,-2.425807850835297,2.761953758841438
2023-12-07 13:05:21.947665,-4.425814515369017,7.085343779959768,-0.1262420624953683,-7.265914439258157
2023-12-07 13:05:22.049287,-10.253038832049684,6.475210863291738,1.033256223744164,-7.884477630273071
2023-12-07 13:05:22.352921,-14.090180140546853,0.8734858194568882,2.5782645302338927,-3.6028115354066794
2023-12-07 13:05:22.642198,-9.115358081581151,6.02812093924198,0.8214575864362107,-7.2541309748172305
2023-12-07 13:05:22.745152,-13.598643909839844,2.8023606643325896,2.4399432067468783,-5.209893657131549
2023-12-07 13:05:22.857541,2.516767404744025,-6.214204524994724,0.5531233431596893,6.106826780423625
2023-12-07 13:05:22.980414,30.46544851737612,2.2283092206458632,-6.811094580508533,3.9973152593949486
2023-12-07 13:05:23.091873,14.633233572018526,2.8346735976809723,-3.7129239254164257,0.3072140233935185
2023-12-07 13:05:23.257547,-6.870984985091303,-1.627014741116793,1.5368456848108725,0.0763448482768287
2023-12-07 13:05:23.837643,-6.98803920800438,0.6752218669814387,1.147591145868637,-2.01917094250678
2023-12-07 13:05:23.975588,-6.826735776479634,0.5435839326955255,1.1389628689397675,-1.8624437308564263
2023-12-07 13:05:24.036855,-11.371547189776608,3.0866272736496017,1.7489898503597845,-5.0580592601774885
2023-12-07 13:05:24.140583,-12.577751657390602,-0.6550528762652548,2.4151727250280604,-1.9430788441503808
2023-12-07 13:05:24.201692,7.52470588753051,-3.0284221868230574,-1.4975209212701317,4.183612568937571
2023-12-07 13:05:24.586443,15.510618691316484,2.7906280680891022,-3.804327031632994,0.55540601249825
2023-12-07 13:05:24.876631,-6.7608226585807465,-1.818480618448592,1.6132494076885926,0.2840365981045992
2023-12-07 13:05:25.065954,6.134569661282483,-2.866789198134533,-1.0940320888339718,3.78768902472232
2023-12-07 13:05:25.252978,26.24636024071177,4.031601088239788,-6.4092441727485685,1.58395552867128
2023-12-07 13:05:25.377061,0.098882054360312,-3.178563942436329,0.2909020121058776,2.8642227435578778
2023-12-07 13:05:25.770940,35.23064386257936,-9.099246553095275,-5.619358817859324,15.322503738569132
2023-12-07 13:05:26.220987,-2.475351241518503,-8.730510679303718,2.007991277171868,7.373441657065114
2023-12-07 13:05:26.384871,-13.98805059229498,5.186546782198974,1.7483700098128905,-7.542245428560637
2023-12-07 13:05:26.774733,10.16467276757913,4.283988296096002,-2.9712089013320924,-1.7945659280486397
2023-12-07 13:05:27.133162,-29.237024527358308,8.712537061231203,4.621739823202102,-13.820727916501674
2023-12-07 13:05:27.252482,-3.298218476205454,6.356842513437123,-0.3382618423121413,-6.4100443633531015
2023-12-07 13:05:27.664509,25.24548177721862,-10.391231360284236,-3.166980738220639,14.565267036032978
2023-12-07 13:05:28.683414,-8.834926036793568,4.218738895630047,0.7096536141480614,-5.678679278892011
2023-12-07 13:05:28.738223,-6.100434121195995,7.416788285753289,-0.1734518206673296,-7.968561122980919
2023-12-07 13:05:28.770048,29.78793985918172,-6.514907607338134,-4.695494895814623,12.050199091965128
2023-12-07 13:05:28.846711,-2.412685578308172,3.8755055157227982,-0.4746731491320611,-4.023816445831639
2023-12-07 13:05:28.919675,-19.26015685468807,-0.2905661052754668,4.157560642261861,-3.713366058813922
2023-12-07 13:05:28.997570,-1.7227397690869375,-6.119784841803369,1.569444720039717,5.154203572828043
2023-12-07 13:05:29.132486,-10.74561296722918,3.189064380875344,1.2435292611576212,-5.149256694938559
2023-12-07 13:05:29.162167,1.6885939237684449,-6.0931613837243,0.8709056523951437,5.901387667712634
2023-12-07 13:05:29.363449,-3.394094187252385,-6.053497957046414,1.895433018526937,4.7544558044902585
2023-12-07 13:05:29.438286,-19.648015450405904,-1.4255504673047017,4.389593621373037,-2.8407331614757814
2023-12-07 13:05:29.473289,19.314939479467643,-9.99445169933409,-2.1655468602157217,13.099970766804944
2023-12-07 13:05:29.590428,28.59526698489544,-2.861187395735586,-6.012226229130335,8.537528874963618
2023-12-07 13:05:29.850377,-5.825797496619543,1.0408090130840046,0.8841104901267468,-2.218891252312264
2023-12-07 13:05:30.046603,-18.96014466164088,-2.3521370535319166,4.6508381678148245,-1.8929790790816623
2023-12-07 13:05:30.098625,-11.7947901541611,1.1915477229879332,2.170053081560525,-3.601170441356169
2023-12-07 13:05:30.264463,8.117814306163563,-5.52839756993085,-0.2463233590301988,6.753892228259002
2023-12-07 13:05:30.451952,6.093006761055604,-5.1679212526424445,0.3969498670812499,6.018893237831019
2023-12-07 13:05:30.605719,-15.291457052378664,5.076684065342088,2.277376437198802,-7.866255549669544
2023-12-07 13:05:31.029714,-10.517569837319728,2.5057480586194467,1.5601541889018578,-4.533157289873506
2023-12-07 13:05:31.103345,-3.1894690435173128,3.055111271369966,-0.0189340434423947,-3.4528226579289787
2023-12-07 13:05:31.321881,2.4160207394573385,4.185635188777304,-1.695179321978595,-3.314084668768773
2023-12-07 13:05:31.879464,22.90265126131618,-4.728969985235813,-4.500371363043296,9.14010273088906
2023-12-07 13:05:32.204521,8.99226542239528,2.51323628366692,-3.847873993991513,-0.4742512366422974
2023-12-07 13:05:32.760438,-11.220642982241086,8.442163736718733,-0.5060657571963182,-10.219991966486136
2023-12-07 13:05:32.896428,-19.2970269993321,4.16976581550116,3.0270106969925847,-8.03916424212114
2023-12-07 13:05:33.035632,-1.4713105340400243,2.0545626425852728,-0.8349875855966661,-2.2397002176577456
2023-12-07 13:05:33.183019,35.24258602435813,-7.297771978796954,-6.491296528477663,14.363605162441612
2023-12-07 13:05:33.299522,5.182764693621177,-1.662713515421075,-0.3748745561878648,2.6900509901205325
2023-12-07 13:05:33.443996,-17.942585504434646,8.1893594699769,2.0827105124881924,-11.433643796425478
2023-12-07 13:05:33.842214,-3.495056156040996,2.524331497799145,0.4290078833814213,-3.062021777034301
2023-12-07 13:05:33.952060,2.475295787230871,-3.654976033979,0.942059340059798,3.95370157650208
2023-12-07 13:05:34.305644,15.70159146779112,-1.173343084041078,-3.9472816351258073,4.549513394964755
2023-12-07 13:05:34.591482,-2.427442491588623,6.996720630582579,-2.3773615051320345,-7.030923013561349
2023-12-07 13:05:34.743093,-17.85554251199397,9.494754517040349,0.9461119692417688,-12.76110493470174
2023-12-07 13:05:34.821270,21.81554355250546,-0.5648144946501589,-5.465932444668864,5.384196714284725
2023-12-07 13:05:34.954260,18.26995464082857,-2.6098957264888045,-3.839404130191437,6.489250046490634
2023-12-07 13:05:35.166188,-20.5011606577194,6.936667487840374,2.4845930575359274,-11.030361227912058
2023-12-07 13:05:35.643875,-13.119623396136507,8.562202398299664,0.1483743920305683,-10.844365985168512
2023-12-07 13:05:36.410031,-6.28075961696865,6.653378249587927,-1.0358035576236035,-7.563224945368743
2023-12-07 13:05:36.574088,-9.91511083970117,2.939571464955637,1.597140553383766,-4.952927270256561
2023-12-07 13:05:36.942325,-4.534867850893542,-2.417354624266057,3.023165061899196,1.2973863538123176
2023-12-07 13:05:37.290740,-10.31796464672534,3.578040810813972,0.998618775487542,-5.657934726834903
2023-12-07 13:05:37.425393,0.9697730024115128,5.867647016677166,-3.561528112006134,-5.268571668442712
2023-12-07 13:05:37.562432,13.337137846862053,-0.1368666708993377,-3.0240371176197582,3.2338620213073845
2023-12-07 13:05:37.708420,5.71254788344523,-2.485685677558708,-0.0034567374889312,3.669853092216084
2023-12-07 13:05:37.767948,10.067612553869262,-8.20580507602037,0.8535425166187468,9.937775034054612
2023-12-07 13:05:37.982011,3.9125883086058098,-5.950066296633561,1.918856605227966,6.437733650264678
2023-12-07 13:05:38.090602,7.271970936317275,0.0350405778241131,-2.221621953080955,1.6281097987063649
2023-12-07 13:05:38.592768,30.33124229959945,-5.8695854324115695,-6.2137787408775775,12.454773771902934
2023-12-07 13:05:38.656616,9.590990756705535,-3.263217098068756,-0.7792450345338818,5.282645691797995
2023-12-07 13:05:38.916172,-16.463746004490694,2.6627360323504714,4.190059640712029,-6.226506046732503
2023-12-07 13:05:38.996531,-4.004529845439804,-0.7824380090895758,1.7561366614972518,-0.1559890544503286
2023-12-07 13:05:39.217237,5.068383492758458,0.2856511869400591,-1.9085654727461288,0.8823917418997931
2023-12-07 13:05:39.283446,-0.4189555387913934,-2.3676818187959574,1.563687094076204,2.106766153125181
2023-12-07 13:05:39.605091,14.775263585709409,-7.322794825707653,-0.5653489239974931,10.326752166047818
2023-12-07 13:05:39.708373,-0.8521914122679374,-1.245353139487274,1.3167639605873904,1.088136925390354
2023-12-07 13:05:39.872070,-5.610652805925152,-3.711490838281791,4.708340109716529,2.246037174422164
