Timestamp,TP9,AF7,AF8,TP10
2023-12-07 12:18:35.733752,-2.007991191491467,0.1875649261326949,-0.0425526280881527,-1.8136905540128645
2023-12-07 12:18:35.733752,-47.73154444509255,4.202870082940401,2.6106208681214773,-50.90181487836876
2023-12-07 12:18:35.733752,-37.03851149557568,3.0960761513419777,1.7670206388550949,-37.5808887756368
2023-12-07 12:18:35.733752,-21.814678836798425,1.7933699575660242,0.6182409548699588,-21.934278627146423
2023-12-07 12:18:35.733752,-22.984985258483253,2.089105972347476,0.8864429853121759,-25.373077313076173
2023-12-07 12:18:35.733752,-3.3921347864658817,0.3196848103894079,0.287338276599201,-3.121684952005785
2023-12-07 12:18:35.733752,-2.351064388823909,0.0573067766296737,0.3584515137049673,0.2245470984624956
2023-12-07 12:18:35.741733,-33.83710225579365,2.7781773530608667,1.6381828044455855,-33.755243805098175
2023-12-07 12:18:35.741733,-30.48254547402073,2.5754506222039963,1.0395578424392584,-31.61313239280029
2023-12-07 12:18:35.741733,-1.78375540635733,0.2097329413870391,0.0944490210947199,-1.7460799873395625
2023-12-07 12:18:35.741733,-6.54786308060024,0.6787158850398286,1.171072139997016,-6.783298908479404
2023-12-07 12:18:35.749842,-42.11116672231119,3.719039619951791,2.69242928833312,-44.89220865180855
2023-12-07 12:18:35.758009,-38.06364403215714,3.227969163114525,2.0343538966026187,-39.39133561018187
2023-12-07 12:18:35.758009,-24.54288553262959,2.244996331631892,1.4639301497486774,-27.026255938411488
2023-12-07 12:18:35.758009,-12.53098893054963,1.2427831869081687,0.686830230625648,-14.726146294546073
2023-12-07 12:18:35.766147,4.996918171486559,-0.5812244430288793,-0.004422799511056,8.38771996923089
2023-12-07 12:18:35.766147,-12.855779135973687,0.826337322888438,1.2772125626425035,-8.800850702463656
2023-12-07 12:18:35.766147,-31.697229510521662,2.614949230630813,1.5659896632880272,-32.12235372073985
2023-12-07 12:18:35.766147,-14.41694781733364,1.3309928050829944,0.1025646605577247,-16.63178272662998
2023-12-07 12:18:35.766147,-13.526911136382942,1.4203255452018235,1.0552035683644725,-16.770460285585035
2023-12-07 12:18:35.766147,-34.71842396214905,3.165962223721394,3.0171054564450754,-38.03170529254091
2023-12-07 12:18:35.774210,-42.300197469423246,3.538411566900132,2.884113523706603,-43.2285551989244
2023-12-07 12:18:35.774210,-24.62175409594773,1.863260199718073,0.5403549188085611,-23.527207797040266
2023-12-07 12:18:35.794500,16.38104750428628,-1.563678614165827,-2.2405098837659434,19.344641879223648
2023-12-07 12:18:35.794500,15.142876053165262,-1.1607569445594892,-1.370269602041006,15.135862556718887
2023-12-07 12:18:35.794500,-38.51690055019188,3.490665011087963,1.3115574970329074,-44.91179706317625
2023-12-07 12:18:35.798507,-44.5389552325081,3.5693893165490964,0.6996212640178571,-47.10101482271289
2023-12-07 12:18:35.798507,-5.921595272182326,0.0200544434009261,-1.2962024737144129,-0.9872985281419114
2023-12-07 12:18:35.798507,22.37359027191146,-2.110454899324093,-1.817681026772044,27.208135258109422
2023-12-07 12:18:35.798507,39.709949665799485,-3.3190288432556403,-1.359539375176779,44.00365060742952
2023-12-07 12:18:35.798507,6.962757813681483,-0.6120990355525527,-0.3733445989813337,8.899493351390525
2023-12-07 12:18:35.798507,-42.97045330207256,3.3306298131049403,0.2660357679593819,-44.07047625863228
2023-12-07 12:18:35.806834,-24.98904021891197,1.6176309690493709,-1.073020249133168,-21.762767529780643
2023-12-07 12:18:35.806834,10.539838407305275,-1.1288466620292918,-3.7381807305379535,14.280507590116086
2023-12-07 12:18:35.806834,16.05905268976363,-1.203189056563019,-4.44928774295667,14.95807911755102
2023-12-07 12:18:35.847586,3.7514479318035145,-0.230772450308372,-2.4427423607707603,3.1893240357244044
2023-12-07 12:18:35.847586,-30.101916398419053,2.225478369895032,-0.6864539419392391,-29.507559349729007
2023-12-07 12:18:35.847586,-32.95964177569876,2.196294192378919,-1.56355723037468,-30.032098398844685
2023-12-07 12:18:35.855676,0.3177296375041807,-0.3297374241833528,-3.628675389497853,3.466396797475708
2023-12-07 12:18:35.855676,7.219549933658823,-0.3051953153908127,-4.04225462012857,2.393610622462346
2023-12-07 12:18:35.855676,5.572667752107955,-0.2756664920950166,-3.243546998417268,3.0374902954057013
2023-12-07 12:18:35.855676,-3.346484932172777,-0.2367048033852741,-2.536521759104493,3.865053892739829
2023-12-07 12:18:35.855676,-27.70091115052566,1.6121968270842295,-2.698495418305276,-23.47527730173005
2023-12-07 12:18:35.855676,-9.884584229350684,0.6085914561134335,-4.000374862480363,-10.799768281907603
2023-12-07 12:18:35.863795,23.09345882621276,-1.4824648024919664,-3.5765668448048435,19.992591568967427
2023-12-07 12:18:35.863795,6.097641206932568,0.0158345318859365,-1.4682672473973524,-0.6043436691612984
2023-12-07 12:18:35.863795,-31.341695689553493,2.4537991633686094,-0.5204096255382067,-35.490028264140705
2023-12-07 12:18:35.871889,-43.79457885631934,3.078409364170455,-0.0513524319770966,-43.69644300102486
2023-12-07 12:18:35.871889,-14.203933990251784,0.971671873371842,-1.5299351902480511,-14.003411829740788
2023-12-07 12:18:35.880092,30.858939019193723,-2.203707098983703,-3.976431494104163,31.128639949329003
2023-12-07 12:18:35.880092,28.65771795221472,-1.946808456522808,-2.1334550668280574,28.76933338489797
2023-12-07 12:18:35.880092,-16.28164283615138,1.196298302044479,-0.1716931459379547,-17.267143213475787
2023-12-07 12:18:35.880092,-40.21711219661685,2.7598525343306126,-1.4811534867589071,-41.83318257326394
2023-12-07 12:18:35.880092,-16.083399513644903,1.015104933378166,-2.1671868372276224,-15.352137043701804
2023-12-07 12:18:35.888271,27.595645498005883,-2.062796043321223,-2.830274511548039,31.667386891198824
2023-12-07 12:18:35.888271,37.44978566521502,-2.6458394987338663,-2.192859314497485,41.23082414427585
2023-12-07 12:18:35.888271,0.140290528752091,-0.1098656061462348,1.1902121452039418,4.876862738466379
2023-12-07 12:18:35.888271,-32.974780525991335,1.9140007822515808,2.728079826048032,-24.40615578952612
2023-12-07 12:18:35.894783,-16.778260473422975,0.7334752577569559,1.2273191987956886,-6.2962658498717925
2023-12-07 12:18:35.944536,26.43284202599661,-2.013611480406376,-1.4508601322596768,34.345475896356966
2023-12-07 12:18:35.944536,29.101963332427403,-1.6969163556441589,-2.3833677505110806,25.713169805667604
2023-12-07 12:18:35.944536,-19.35773506706241,1.824467203691786,0.5002003073461901,-30.92449760003846
2023-12-07 12:18:35.952569,-41.99340435591356,2.7609682063031067,2.689447500497809,-41.79991419983924
2023-12-07 12:18:35.952569,-10.682005264306538,0.1880187310108267,1.3982063067027612,2.433780383218969
2023-12-07 12:18:35.952569,18.7955505540158,-1.2164856618158797,0.8004126013859958,21.830428593098866
2023-12-07 12:18:35.952569,22.54934815932634,-0.7841333766405271,2.3994373121195087,11.591577408561797
2023-12-07 12:18:35.952569,6.358399234118866,-0.0971070130346923,3.9221514220945912,4.49308992441101
2023-12-07 12:18:35.960750,-24.230525228735228,1.2489988318091036,4.2612625783936,-13.767870918976133
2023-12-07 12:18:35.960750,-27.392777578166264,1.6056468578838472,1.053114093855991,-24.58250777536856
2023-12-07 12:18:35.960750,14.243378331912863,-0.7734689133973365,-3.17809464995092,10.102330758836729
2023-12-07 12:18:35.960750,43.45148035941143,-2.6658177863254666,-1.953441737538728,43.94569258547564
2023-12-07 12:18:35.994817,17.195409673021654,-1.1057013622102498,0.9655237588958044,21.0655808377115
2023-12-07 12:18:35.994817,-29.4521455357877,1.6962427951809032,1.7113165693223786,-25.584607991967605
2023-12-07 12:18:35.994817,-33.42172736187604,1.928623887717705,1.453169405010021,-31.2202246325088
2023-12-07 12:18:35.994817,9.505386695557508,-0.6248839802831054,-0.2362417275288657,11.428200949725507
2023-12-07 12:18:36.001323,36.05078700834921,-1.96696399007854,1.9449274038303848,35.11130494041523
2023-12-07 12:18:36.001323,9.367339048356854,-0.0255006048138118,6.540083111428747,-0.4674398240962426
2023-12-07 12:18:36.001323,-30.168567176487148,2.1663499476176784,6.256027138160178,-38.31998369682872
2023-12-07 12:18:36.009477,-30.09011338068335,1.7396176996679589,4.536786480192284,-25.199254884504967
2023-12-07 12:18:36.009477,6.335690790986333,-0.4112770494378607,1.9616563155694529,11.918243728511078
2023-12-07 12:18:36.009477,33.614167183937234,-1.5712492862808047,0.9914175031859755,24.22795149149601
2023-12-07 12:18:36.009477,18.07715608492944,-0.4038716511399662,5.496456105090139,0.5075796365877862
2023-12-07 12:18:36.009477,-21.3620008073981,1.4538319764402414,5.674579170228596,-26.36220409025797
2023-12-07 12:18:36.025896,-27.15910937282604,1.1735884734963822,1.5831203050148772,-11.13198517657728
2023-12-07 12:18:36.025896,12.981316840598614,-1.042281581713489,-0.2067976894804449,27.5284237719428
2023-12-07 12:18:36.025896,45.650814237306456,-2.2454865327769333,-2.67284791711753,33.3356475394009
2023-12-07 12:18:36.025896,36.97357522312431,-1.5317390125170085,-0.6050544318665675,17.277239267556162
2023-12-07 12:18:36.034159,-2.8770621215894936,0.3726411046821866,5.804578482175034,-6.600859614572268
2023-12-07 12:18:36.042378,-33.72057360166944,1.8344002712924008,4.217517480034394,-31.30342612564853
2023-12-07 12:18:36.042378,-4.463356448093582,0.1358584549039794,-1.414887770043527,-0.1348981030724107
2023-12-07 12:18:36.042378,46.71636056234132,-2.4334788916336305,-0.91574343642695,44.18114747772899
2023-12-07 12:18:36.042378,36.25472112385279,-1.588805127855799,1.134741774483225,20.76226327816696
2023-12-07 12:18:36.042378,-9.352569754660673,0.6470594060071665,0.4899246050746028,-16.21698295224633
2023-12-07 12:18:36.050435,-31.54154198308947,1.5923810826740796,0.0215866458696427,-26.79531810558641
2023-12-07 12:18:36.050435,-14.578511491397272,0.7361514397423851,0.3143638098508407,-12.66279494782428
2023-12-07 12:18:36.094691,40.9159116822834,-2.0565630923641334,2.341473622401228,35.78386354810331
2023-12-07 12:18:36.094691,55.27836237450018,-2.6481085267338083,4.988741555941802,43.66708535129725
2023-12-07 12:18:36.099198,-7.907995426969158,0.5965426060925088,3.712933040611493,-15.88716278924702
2023-12-07 12:18:36.099198,-46.45308449827082,2.370549051463636,1.8048948914217129,-42.66694693040315
2023-12-07 12:18:36.099198,-18.003615561352685,0.8513279377162901,3.3034446089741194,-8.441380687185967
2023-12-07 12:18:36.107248,29.723702735517044,-1.4278830874713024,2.5554931380491155,31.406776836657567
2023-12-07 12:18:36.107248,45.72456892887642,-2.134714295092768,-2.891466672450367,36.96784932149034
2023-12-07 12:18:36.107248,0.9616716792928708,0.0641081917187564,-6.208827523824855,-5.142951496335955
2023-12-07 12:18:36.107248,-43.5018743879391,2.183619811020076,-6.3909067514004665,-39.73968410551608
2023-12-07 12:18:36.115326,-19.95813080698929,0.9369561722291404,-7.426383924531569,-11.229294565045358
2023-12-07 12:18:36.115326,39.0868405263406,-1.87438683729935,-6.414127015146127,36.66838252906621
2023-12-07 12:18:36.115326,58.54068135989579,-2.663230542543011,-4.457394282227596,40.61125875846139
2023-12-07 12:18:36.156312,13.406413023839718,-0.4434245381232554,-3.483145427398352,-2.8151384093445184
2023-12-07 12:18:36.164327,-30.982266164809843,1.683898830799705,-0.3797466952704496,-39.67726961732281
2023-12-07 12:18:36.164327,-20.41928473732573,1.095983345118108,-2.958023732936657,-23.317583262630524
2023-12-07 12:18:36.164327,24.40004581082741,-1.0665049755932965,-9.148152621907975,16.289206916632818
2023-12-07 12:18:36.164327,57.46756094933343,-2.544384973957379,-4.215111201477194,35.04636821164417
2023-12-07 12:18:36.172458,27.03274117605416,-1.1931976608170125,2.128307532152608,20.043917091876
2023-12-07 12:18:36.172458,-34.83918659986223,1.6157070228181096,-0.4420786902590953,-18.78481744998269
2023-12-07 12:18:36.180613,-32.97242367444722,1.565261368707455,-1.9521054792558643,-22.861468587838285
2023-12-07 12:18:36.180613,22.257790148452184,-1.0603924025178617,0.3205225366654187,25.5403217491978
2023-12-07 12:18:36.180613,55.336488069305744,-2.5787194387710075,3.5572085365274515,47.67887689915234
2023-12-07 12:18:36.180613,31.983671412031367,-1.356513859992557,5.521658753166935,9.589462195342175
2023-12-07 12:18:36.188803,-21.5385640158226,1.120806290159879,2.884304306513617,-29.599952083118424
2023-12-07 12:18:36.196816,-28.91010307052509,1.4009715785223005,-0.1623935964405792,-23.8396031484067
2023-12-07 12:18:36.196816,22.037870768526307,-0.9763004302716608,-0.4813215616081109,16.12009810584962
2023-12-07 12:18:36.196816,54.059535811056826,-2.498354293643141,-0.028321825129569,44.25174545953239
2023-12-07 12:18:36.196816,27.8563551100576,-1.2522380938974322,2.256670869544548,18.50264278707541
2023-12-07 12:18:36.204964,-21.619449125018942,1.1057571811733355,6.178725076277523,-31.523619115813165
2023-12-07 12:18:36.204964,-34.8998367771668,1.6598351384387813,5.33460982194674,-30.85745558604683
2023-12-07 12:18:36.204964,11.042432195389264,-0.5171914923941071,-2.1781542446445377,16.15434186025356
2023-12-07 12:18:36.204964,58.45826111094701,-2.6479823073189936,-4.810123170843734,41.46859946099604
2023-12-07 12:18:36.213020,45.95319594205375,-2.1480994414033296,1.7262827441934698,29.76593377559812
2023-12-07 12:18:36.213020,-17.34253692470872,0.7452229604616001,5.279468974004479,-4.510920518960844
2023-12-07 12:18:36.221308,-46.6589143283571,2.093835055739721,4.046772527158351,-24.64217001934082
2023-12-07 12:18:36.221308,-3.928888135368053,0.4086890090815004,5.154205300085641,0.0829888044302841
2023-12-07 12:18:36.229718,59.0279920473684,-2.384608536354131,8.048011745469125,44.88874130846448
2023-12-07 12:18:36.229718,53.84825771224403,-2.264037844881425,8.964927925033212,39.99450249764183
2023-12-07 12:18:36.229718,-8.063350850119901,0.499914269177842,5.779794467127321,-12.42390149702257
2023-12-07 12:18:36.237966,-39.8915194542894,1.728420717872249,2.2941975654730262,-34.79872767120659
2023-12-07 12:18:36.237966,-7.150111771747959,0.0950255836716923,4.936492160398599,1.5659351948665683
2023-12-07 12:18:36.237966,46.46994742276238,-1.9720537507909848,9.230049615735238,43.65248929193811
2023-12-07 12:18:36.237966,43.663782204784205,-1.599113195284035,8.471901404558983,34.934906102080454
2023-12-07 12:18:36.246351,-13.645470944307943,0.7624968736212131,6.592345662075251,-10.120303275849162
2023-12-07 12:18:36.246351,-42.904952091382185,1.8899107866389704,5.737082149346683,-28.503783543756008
2023-12-07 12:18:36.254475,-11.95752791241008,0.4635928047590897,1.6890933935279082,-2.38305948649889
2023-12-07 12:18:36.254475,38.01189041096353,-1.5491596266194527,-3.1437758408223324,30.4358773754798
2023-12-07 12:18:36.254475,45.18380765377263,-1.609248043250626,-1.7039661830902153,31.8210725535881
2023-12-07 12:18:36.262627,2.017782743505678,0.5037475900813906,0.8576503920539609,-5.03447552345017
2023-12-07 12:18:36.262627,-31.16792624151596,2.514938991007824,-4.228607039136074,-31.40631896200332
2023-12-07 12:18:36.270845,-9.668778002861712,1.3840097026362028,-4.640058424871656,1.3598683168703076
2023-12-07 12:18:36.270845,45.57408929232816,-2.1850001349303305,7.394924511188635,51.49889059871522
2023-12-07 12:18:36.279278,55.91929465381093,-3.174149187370661,12.746108188388355,49.15477951186825
2023-12-07 12:18:36.279278,-2.143319673264168,-0.690658834923947,7.222737279726317,-1.963396523505164
2023-12-07 12:18:36.279278,-45.6771765450164,0.9697472085528877,5.548109807563797,-46.54096977714202
2023-12-07 12:18:36.287404,-29.11448242977985,-0.6300937924297512,6.170941774173469,-35.56997343754495
2023-12-07 12:18:36.287404,8.907458636568752,-4.008979000158189,2.367653875889168,14.014861042416992
2023-12-07 12:18:36.294915,25.09393113395549,-5.454907917975762,-0.5896757810515713,27.82197948481294
2023-12-07 12:18:36.294915,1.0263338478216242,-3.556985624707452,2.380920156632794,-4.453397694215455
2023-12-07 12:18:36.294915,-39.36747555874254,-1.402875821630992,5.1865841212783605,-28.19968219270264
2023-12-07 12:18:36.327243,-38.6089534508076,-1.709139782597578,4.222474106146607,-18.05721528990308
2023-12-07 12:18:36.327243,12.573723033361516,-3.4629336632497565,4.000916444395588,20.392063355457484
2023-12-07 12:18:36.335232,48.97677933627214,-4.4811451383189045,1.9212807966926595,43.9896372952785
2023-12-07 12:18:36.335232,20.709954967612656,-3.272645033157464,-1.5289227004519503,11.052402682333303
2023-12-07 12:18:36.335232,-38.63113680144215,-0.5592336868771758,-1.4621503697838454,-34.56458085477994
2023-12-07 12:18:36.335232,-39.98656847764915,-0.4726793844379345,-1.5039199903751497,-29.326634317126068
2023-12-07 12:18:36.343662,19.12631774177132,-2.9289276357855414,-0.6964428329615951,16.228040720331446
2023-12-07 12:18:36.343662,35.25664066036183,-3.321643028317059,0.8087627127747028,40.97149419013584
2023-12-07 12:18:36.343662,-0.214914906191046,-2.100367205340594,-0.5558799155358958,13.009411239480096
2023-12-07 12:18:36.351749,-31.484704238256665,-0.6615142073057988,0.0566555152260374,-27.436056847185327
2023-12-07 12:18:36.351749,-40.06954032489447,0.2895424254075783,0.3078315108593694,-27.556464023046136
2023-12-07 12:18:36.359874,2.7835299553191555,-1.65337703219435,-1.8828808574890976,11.204124821611613
2023-12-07 12:18:36.368003,46.346471873172014,-3.638319615315291,0.6604644511740654,41.33382143072286
2023-12-07 12:18:36.368003,24.96174699960629,-2.082012161934551,5.371850528940788,23.44479945962401
2023-12-07 12:18:36.376246,-25.176361839399824,1.576952468806723,7.620721174932675,-24.064918325676302
2023-12-07 12:18:36.376246,-53.24607041114159,3.63818431788609,7.318220758045266,-40.369154179027575
2023-12-07 12:18:36.384438,-9.340358544753869,0.3405369623121259,3.023731849033628,0.4923988729636335
2023-12-07 12:18:36.384438,51.06972404503022,-3.7409631595189032,-1.448976715612333,39.301330576653015
2023-12-07 12:18:36.395133,24.21158334905896,-1.7737161484620425,-0.3938090446412408,22.754889301053133
2023-12-07 12:18:36.395133,-25.15483217544902,1.7893036370838558,2.125605229785936,-14.493396027449169
2023-12-07 12:18:36.400645,-37.819450994893614,2.069322076410105,-2.0357663163176274,-29.922932504428136
2023-12-07 12:18:36.408813,-24.74762393707661,0.7391176863589531,-5.11012446980081,-10.08979698143202
2023-12-07 12:18:36.408813,22.79923535747826,-1.472224499127744,-0.5696367926761006,29.179142144106656
2023-12-07 12:18:36.408813,42.570341918137686,-2.3881381008194373,-0.0726344685183025,30.146370718490505
2023-12-07 12:18:36.425131,1.826971075080556,0.0728762638802731,-1.2201224947350515,-10.948060866611693
2023-12-07 12:18:36.425131,-33.735136609430775,1.2319965196098532,0.39349999498889,-32.07447563969432
2023-12-07 12:18:36.433297,-16.075660859415393,-0.7469753041140456,-3.464240199100273,-8.003595367171357
2023-12-07 12:18:36.433297,37.42327771679879,-1.600754846405508,-3.7840987469585774,30.121609205417343
2023-12-07 12:18:36.441442,51.72712826416328,-1.1322883432136923,0.263490606818562,33.01099513225107
2023-12-07 12:18:36.441442,4.618098592174856,0.52452547878841,-4.088014618114067,-3.2498121803254505
2023-12-07 12:18:36.441442,-39.67174635178683,2.6607748104965934,-8.190035825843063,-27.40083583001789
2023-12-07 12:18:36.449519,-28.671369098542296,0.8026897023718641,-7.791554191483677,-8.0856660350302
2023-12-07 12:18:36.449519,24.489881215371,-2.074944893572059,-10.531363635463125,28.679238061406966
2023-12-07 12:18:36.457800,39.21434661007541,-0.9103225210975636,-9.684806855428636,31.056468940518588
2023-12-07 12:18:36.457800,-5.458510568713931,2.215853002585584,-3.3492836176558414,-5.751289799655464
2023-12-07 12:18:36.465862,-41.79801312147023,4.6288631467010255,-3.134823370071804,-32.86737446124498
2023-12-07 12:18:36.474044,-35.465437697898224,3.615428157478311,-6.596757222374833,-21.03463017787219
2023-12-07 12:18:36.474044,12.939823296336431,0.3417314838431223,-4.455588991348519,16.16059499494853
2023-12-07 12:18:36.482079,44.8752024507513,1.1486926075516617,-0.1645735120465648,28.92565062670568
2023-12-07 12:18:36.482079,8.05077854157468,5.090348833875677,3.90356199467401,-7.1561106458962485
2023-12-07 12:18:36.482079,-27.09407702192168,5.86617187554318,5.636824812394048,-35.80857655684869
2023-12-07 12:18:36.490266,-14.602836735376885,3.9521684402063473,1.1077282526904149,-19.95730110099102
2023-12-07 12:18:36.495272,21.27987249160238,2.534296058892234,-2.352912686705915,14.519363658605275
2023-12-07 12:18:36.498278,51.383102259922126,0.9721860390451672,-2.142912588212242,35.1680449666093
2023-12-07 12:18:36.498278,19.58716465806144,0.901503563748253,-1.956678975257588,11.630870392977824
2023-12-07 12:18:36.506393,-41.09801079100041,3.908093465900644,-0.6199004834886407,-30.30471474163367
2023-12-07 12:18:36.506393,-37.85641031207302,4.248258109174778,-3.2667273543417936,-25.00839259940308
2023-12-07 12:18:36.506393,15.948547333964129,0.5949572038728769,-7.875435587310345,17.217295476049266
2023-12-07 12:18:36.514558,57.704286517259206,0.661066229333769,-5.684512354326461,37.55053154466087
2023-12-07 12:18:36.514558,42.40853022303368,4.815860178942319,-3.321336653845743,14.806304651054369
2023-12-07 12:18:36.522692,-14.547917979356312,6.305265338190589,-3.9894659228316143,-22.27376263409998
2023-12-07 12:18:36.530941,-29.11135868257352,4.726819080442758,-4.485884184880999,-25.131949452570733
2023-12-07 12:18:36.530941,13.121145965011404,2.89973911309883,-7.0748462884557615,9.399695012013986
2023-12-07 12:18:36.530941,40.043406634102496,2.7505607171042232,-6.24089221120798,28.70690113986992
2023-12-07 12:18:36.539207,9.626110770134163,6.234841192846961,-2.6428139676307243,1.9508440776280709
2023-12-07 12:18:36.539207,-34.820385632784834,9.886532184189138,-5.141957733662207,-32.26999975062556
2023-12-07 12:18:36.547335,-31.084954198827745,9.212669138946811,-5.990894733435151,-29.863743127625604
2023-12-07 12:18:36.547335,-3.375569393243344,5.214907508310141,-0.0546753364181902,-7.125360429580581
2023-12-07 12:18:36.547335,19.70382348389465,0.3366225064211023,2.5053168245045634,13.574928652391476
2023-12-07 12:18:36.555502,40.89214439125873,-0.7845764855941708,0.8433558599436997,22.05850105230672
2023-12-07 12:18:36.563618,4.221992643133991,2.60274300461314,2.7521270568792926,-9.691587653632451
2023-12-07 12:18:36.563618,-57.62292596206471,0.9950246474241776,6.536547615095052,-43.45576964748972
2023-12-07 12:18:36.563618,-24.06122343291517,-6.464674702779679,5.955118231670307,-10.427038910899803
2023-12-07 12:18:36.579796,51.6152493410512,-8.06409047549393,2.4645017711334845,39.02255204145744
2023-12-07 12:18:36.579796,53.443598000442776,-3.941264739423508,0.0690198394945194,34.89068188735849
2023-12-07 12:18:36.579796,-1.369070174447534,-1.381919011394244,0.0551728365181694,-1.9365739681097576
2023-12-07 12:18:36.587974,-46.17120173982994,1.3552044590519898,0.7042403359857458,-31.01438566423328
2023-12-07 12:18:36.587974,-21.2713491616366,2.6289450292502536,-2.078381684026811,-14.44010730792013
2023-12-07 12:18:36.595482,40.406214821996144,0.1125970679916075,-4.432804734696427,28.24452565841015
2023-12-07 12:18:36.595482,32.90794841791674,-0.712742462088906,-1.3408901540470453,23.233276867607803
2023-12-07 12:18:36.595482,-19.977312421268085,0.0479233586044405,0.2689715232393074,-13.404780284027444
2023-12-07 12:18:36.603647,-44.042242876474674,1.4790554019162392,-2.952998147982383,-29.269368584808245
2023-12-07 12:18:36.611743,-25.695230225971752,3.4755496557364034,-4.940020439007146,-16.432570621531262
2023-12-07 12:18:36.611743,31.728636203457647,1.507704155839806,-4.398562433091411,22.037885084474585
2023-12-07 12:18:36.611743,46.21468437163945,0.9575341904815844,-2.5935451869151502,29.156704360109995
2023-12-07 12:18:36.619891,-14.524958686977564,4.833578554316977,0.9366132146910922,-16.28402970049161
2023-12-07 12:18:36.619891,-56.23452996548108,4.501369005919532,1.67206636278093,-42.60533110182657
2023-12-07 12:18:36.628016,-45.01559197174583,0.5126043890128676,-2.961918744813917,-25.508883802344467
2023-12-07 12:18:36.628016,-0.092193807838068,-1.760678673307681,-5.406110505914821,8.845546597628221
2023-12-07 12:18:36.636332,26.01522346501768,-1.544565300986272,-2.1120949491011496,20.966936773957045
2023-12-07 12:18:36.636332,-14.687111674494732,0.5581485871701645,0.7730116548305717,-10.375294540291383
2023-12-07 12:18:36.644419,-51.52459790682294,2.504726047799603,1.173071875225318,-36.56189394067876
2023-12-07 12:18:36.644419,-31.852788601129483,2.9000051740142307,0.5918793687787282,-24.64640577306919
2023-12-07 12:18:36.652476,12.374321172024498,0.5478397139095057,-2.0818708316023065,9.1065898967078
2023-12-07 12:18:36.652476,35.33814772000949,-0.7881835033023757,-3.48352650475544,26.35849383244312
2023-12-07 12:18:36.660620,4.702487733579949,3.5348967655684773,-0.55208196197241,-2.240801170773748
2023-12-07 12:18:36.668682,-34.065315281939135,6.520629129960764,0.6756187569145172,-32.187845953134754
2023-12-07 12:18:36.668682,-26.38391247545484,3.355339699541388,-1.9959817555214487,-20.36670120178664
2023-12-07 12:18:36.676866,15.447468526514704,-0.0623654025692674,-3.987759356460307,13.169525727550814
2023-12-07 12:18:36.693355,44.03010406185444,-1.0346052851642813,-3.719127809550006,32.21207739938128
2023-12-07 12:18:36.693355,13.171634039344402,0.4266855791948268,0.1799905341139673,7.103568395606995
2023-12-07 12:18:36.695863,-45.40104959724562,2.91032003495594,3.357529909607915,-35.27346738935472
2023-12-07 12:18:36.701369,-61.090641409449546,0.716005781869931,-2.435984466483712,-36.36085064461143
2023-12-07 12:18:36.701369,-18.297049937088097,-3.0980024709094414,-10.08471040768755,2.140481323974691
2023-12-07 12:18:36.717961,40.69857500800085,-1.928778137608474,-8.19771021562552,34.66737531664899
2023-12-07 12:18:36.717961,42.6224983358127,0.2224382910752159,-1.399471247900015,26.121762504892565
2023-12-07 12:18:36.734592,-11.611705716934395,2.798345225560457,1.2979216495578172,-13.5138016894389
2023-12-07 12:18:36.734592,-40.02922554359171,5.530878876289019,0.7751399504812972,-33.748507949777874
2023-12-07 12:18:36.742810,-17.173116922402592,1.935558075695844,0.8847781633979699,-13.42940894718956
2023-12-07 12:18:36.750910,8.288821953472864,-0.6803375385386293,0.860406133893529,6.763323442262028
2023-12-07 12:18:36.750910,-10.414799918641128,4.2472763338604125,0.9133602700371758,-13.43529281775778
2023-12-07 12:18:36.759135,-45.77678666806278,6.9721397340176345,1.8757284421009777,-40.19278274288997
2023-12-07 12:18:36.767575,-44.01389581583925,5.766761392183505,-0.4680807074225976,-35.45238333682553
2023-12-07 12:18:36.767575,2.663393466416543,3.234775036233071,-2.765767467563192,-0.8621748650203742
2023-12-07 12:18:36.775729,59.34875656948409,-1.120177701319994,-1.47572904226494,39.71780455895762
2023-12-07 12:18:36.775729,69.93807250804075,-0.2687511223671616,0.2904052722195768,43.63379575377666
2023-12-07 12:18:36.783915,1.480130665010709,4.770154243832147,2.7019561024895014,-8.255886496436487
2023-12-07 12:18:36.792131,-62.906685079827135,2.415252281875384,4.672856597972038,-46.46767151131816
2023-12-07 12:18:36.800153,-24.34713770988268,-1.7298653178159047,2.589057248566487,-14.744956112173504
2023-12-07 12:18:36.800153,39.83451161494806,0.9185094213205358,-1.2303505152371197,24.412938667815315
2023-12-07 12:18:36.808306,29.56330181564532,0.5065988958181522,-2.2397787085025174,19.433876544773547
2023-12-07 12:18:36.808306,-2.953007322075813,0.3547394951345794,-3.7034967944529273,0.5798471745735729
2023-12-07 12:18:36.816368,-24.850104124613228,8.465983571179665,-8.886960237200022,-20.73289180958397
2023-12-07 12:18:36.816368,-18.22376655984494,7.650247267300952,-8.580570861205516,-15.660904054044014
2023-12-07 12:18:36.824483,39.796411785094975,-3.476381994028272,-0.4446725553185643,30.188036808647272
2023-12-07 12:18:36.840915,36.75367457341918,-6.660399164650079,6.444934358493584,27.43317674425374
2023-12-07 12:18:36.840915,-32.786618939078764,-4.833035269074329,11.451045540127504,-22.545581801756505
2023-12-07 12:18:36.840915,-41.64835149352368,-6.84969869568248,11.832154592387797,-25.422659181182564
2023-12-07 12:18:36.922172,-29.55584713019169,-9.877252978236816,11.238094232715191,-12.70765569824285
2023-12-07 12:18:36.930184,16.140579150312966,-10.019313387302262,8.716765968851561,18.06901837297693
2023-12-07 12:18:36.946503,0.2252496083662701,-9.89386736718611,13.223769893934984,4.512381987586214
2023-12-07 12:18:36.946503,-38.29215023474249,-8.036723226523538,10.222313145740284,-19.99207215892557
2023-12-07 12:18:36.971139,8.541183244966847,-8.199197731964084,8.464590577436361,11.013161514642611
2023-12-07 12:18:36.971139,-16.318668949319793,-3.665090528453073,7.020936764162494,-10.1713399527647
2023-12-07 12:18:36.971139,-14.292419106750112,-5.641544524184874,7.053498053314532,-6.000185001984878
2023-12-07 12:18:36.987413,8.248128931886274,-8.331190207149687,5.707779142844111,13.16680431801918
2023-12-07 12:18:36.987413,46.948610559412096,-7.653964157362608,5.251295704381318,36.836819236856414
2023-12-07 12:18:36.995562,39.645953875103245,-6.552109917499664,7.128537662571391,29.23268849922009
2023-12-07 12:18:36.996568,-24.52435827214012,-6.911015831983884,9.441778006997913,-12.25399972399382
2023-12-07 12:18:37.011727,-6.135850367316175,-5.6975610167123225,5.279109808478195,0.7415433582137195
2023-12-07 12:18:37.011727,26.39897849754109,6.39419762728644,-5.942775766186632,11.50190186039254
2023-12-07 12:18:37.019857,9.085675201145504,5.267496173522355,-4.315786693334463,1.0225114650836291
2023-12-07 12:18:37.109233,60.818975858771886,8.474764446659945,-10.648331782732123,33.1691488618455
2023-12-07 12:18:37.117367,19.078591333292696,9.680511270246637,-8.745735246675542,3.5544845436623302
2023-12-07 12:18:37.133581,34.5582059255766,8.73484590432664,-12.0294665769211,16.96772972057461
2023-12-07 12:18:37.133581,35.37129213956424,8.765330689417032,-11.919230968874029,17.36024005284022
2023-12-07 12:18:37.141864,-6.860514640009681,9.98799261163006,-10.654491377933482,-12.194493148507055
2023-12-07 12:18:37.141864,-33.73545403958073,7.977940072127253,-7.971184227061217,-28.113384693712646
2023-12-07 12:18:37.150000,-39.73742146853835,5.0482633954089815,-5.282471268288694,-29.343428279036686
2023-12-07 12:18:37.158148,0.2125320091341198,4.647841030362589,-6.556970384130671,-2.486586104926628
2023-12-07 12:18:37.158148,39.17092112881769,3.866047576650152,-8.079180587347619,24.47738438873637
2023-12-07 12:18:37.166221,11.367751101998104,4.268841015980944,-7.328808412694694,5.653890113342248
2023-12-07 12:18:37.166221,-31.091402273389004,5.093744942114101,-5.031725454357879,-24.175933867571
2023-12-07 12:18:37.174372,-42.3285384397904,2.862326400299812,-3.1614294890194,-29.21142828736709
2023-12-07 12:18:37.182404,-3.230909301178688,2.5463730729594345,-5.710228220434869,-2.152179728365299
2023-12-07 12:18:37.182404,63.42698458575347,2.998231837003404,-6.6488209045768505,40.24654951220127
2023-12-07 12:18:37.190540,43.900516358863904,0.406555973422023,-0.7329731359384883,27.854597491067963
2023-12-07 12:18:37.198566,-38.71674799905298,0.3009021273413926,2.231609719582921,-26.59051268439446
2023-12-07 12:18:37.198566,-60.72042997807759,3.273718073584569,-1.7242266741800556,-42.567140068358775
2023-12-07 12:18:37.198566,-17.034792939176416,3.2949496108820995,-3.975432038700128,-13.276231649760058
2023-12-07 12:18:37.206674,42.20511933966229,-0.8463908043504282,-1.5773824189171612,29.26006340176149
2023-12-07 12:18:37.222902,49.81349078705357,-2.730286599275144,0.7358540767106888,35.48013654011861
2023-12-07 12:18:37.231188,-3.7414259770648393,0.8345785582147052,0.7005215184373887,-4.109122659447689
2023-12-07 12:18:37.231188,-39.25490268523378,3.065372538786008,0.1910375416285898,-29.85212636616296
2023-12-07 12:18:37.231188,-16.783358562625235,0.8662573751277908,0.6150498049330708,-12.417112572808692
2023-12-07 12:18:37.239333,41.75351743322829,-0.9302588604679396,0.1932634446294592,28.0006704228857
2023-12-07 12:18:37.239333,52.66145602956389,1.1289898104356204,-2.343795095947562,33.45490415089342
2023-12-07 12:18:37.247473,-12.113705918096306,3.595055934333476,-2.659955349089399,-11.522960811556832
2023-12-07 12:18:37.255668,-54.77761020382385,2.378956686405986,-0.0739963776453057,-38.60409332415981
2023-12-07 12:18:37.255668,-27.93707653189277,2.231582452139673,-2.0190855420651603,-19.983988399534056
2023-12-07 12:18:37.264144,32.57885241097887,3.956407622392765,-6.0227852118230745,18.631166529390224
2023-12-07 12:18:37.264144,61.65744831329952,1.9461725871345288,-3.444394858745714,38.67718470371233
2023-12-07 12:18:37.272259,15.211993208535612,0.5503717998586951,0.5133585220457278,8.586386606492724
2023-12-07 12:18:37.288526,-50.20044711085444,2.6764250187154466,0.144535092127154,-36.30671437644375
2023-12-07 12:18:37.288526,-48.25481374294478,1.041284499678628,0.6893233329349504,-32.90873172535083
2023-12-07 12:18:37.288526,8.840614764302558,-2.2432524428124783,1.7138740805284485,8.039685519790977
2023-12-07 12:18:37.296534,27.564707898361373,-0.5574477665595567,0.3065427087728897,18.34623865487381
2023-12-07 12:18:37.296534,5.057021725637887,-0.5881105881880896,2.1820275093904327,2.796829293504908
2023-12-07 12:18:37.304643,-4.453978708527315,-1.7426998013628343,3.752313685809448,-2.520130885251444
2023-12-07 12:18:37.312731,-9.033705060204522,2.9412284352311526,-1.159717748341408,-9.555309968629285
2023-12-07 12:18:37.312731,13.898907353039576,2.6810629721543138,-1.9997343155315856,6.075882363538741
2023-12-07 12:18:37.320888,33.093372009247666,-2.7096076509081874,2.2672829618702623,23.97945830290919
2023-12-07 12:18:37.329003,-13.116630572695064,-2.138529132050416,3.344662846847768,-7.200385865033912
2023-12-07 12:18:37.329003,-47.164763209015305,-1.1258012165249576,3.6746824599710974,-30.79696913467373
2023-12-07 12:18:37.337242,-33.0290142491005,-0.9008967019009853,2.415765964945096,-21.302836762875263
2023-12-07 12:18:37.345300,4.651459630982494,-1.5190266278050144,1.6869071457681208,4.269057407676957
2023-12-07 12:18:37.353651,62.11140001590212,-4.641978006375575,2.784432004762751,45.234578341325935
2023-12-07 12:18:37.361757,58.56478045432884,0.1715241965956752,-2.544950864960488,38.85054199640829
2023-12-07 12:18:37.378074,-20.464144544559897,6.226180877493476,-5.446966396529754,-19.348149011065114
2023-12-07 12:18:37.378074,-49.91002713024851,0.7072801290224007,1.4672879081901695,-34.03058007190055
2023-12-07 12:18:37.386303,0.3278761414164186,-3.933518718833788,3.5245085155587312,4.051772779612735
2023-12-07 12:18:37.394708,23.70725962940206,1.438399627606428,-2.86731413408506,14.746909963349829
2023-12-07 12:18:37.402719,-2.663396734083264,7.446647588516081,-7.462088241412645,-8.571973993128505
2023-12-07 12:18:37.402719,-29.887587495130937,8.24487738298598,-6.970295943923231,-27.58204850582449
2023-12-07 12:18:37.410764,-49.31700367902415,5.658638137020486,-3.4183143657165664,-38.262191476555365
2023-12-07 12:18:37.427116,-22.65973513801047,-1.029443956780521,2.130537929294437,-14.290898566218894
2023-12-07 12:18:37.427116,19.93319086313669,-7.685122856576672,7.039330165712946,20.245725839560446
2023-12-07 12:18:37.443565,0.6031136387671394,-7.360158766347475,7.58087756458503,4.744664309307194
2023-12-07 12:18:37.443565,-27.339927620862863,-5.918532989635174,7.296814853202204,-15.292543639897971
2023-12-07 12:18:37.443565,-37.99480963663015,-6.222466789976883,8.086458183508936,-21.9851104774757
2023-12-07 12:18:37.451736,-10.498093690269048,-5.029160397581372,5.659727066345879,-3.9620196358094057
2023-12-07 12:18:37.459833,47.0380740087023,-7.069347970361235,5.260728076681047,35.98187599523809
2023-12-07 12:18:37.467936,-35.610046940501086,-6.791828214053168,8.604024385842894,-19.533132421758104
2023-12-07 12:18:37.475987,-64.13179020284296,-1.7343670810266487,4.612740422799697,-41.97095848313758
2023-12-07 12:18:37.475987,-26.78179366640996,-3.3964553434833245,4.708715749164689,-15.506023160664403
2023-12-07 12:18:37.484113,25.163742210175744,-4.967746534965906,4.060438811213708,20.499112378398785
2023-12-07 12:18:37.496720,24.75645843064366,-3.419154597706691,2.462660509517498,18.93571346643615
2023-12-07 12:18:37.500227,-0.0342633574409511,-4.249124964982125,4.40433166604661,2.58834815526207
2023-12-07 12:18:37.508271,-4.467459835570229,-5.25323960306766,5.643621299479373,0.3898936749577885
2023-12-07 12:18:37.508271,7.299586362816382,-2.8489008273947483,2.6432218059377424,7.109013400225989
2023-12-07 12:18:37.516482,48.39923832793393,-1.0467331964368254,-1.0567709899456033,33.430226585550066
2023-12-07 12:18:37.524616,75.60598237663046,-0.3512763937594101,-3.020216273776979,50.6076617767665
2023-12-07 12:18:37.532948,39.44300417666543,1.0286975432458303,-2.853819407872715,25.18198671471787
2023-12-07 12:18:37.541289,-15.08673497701836,0.9153696939102298,-0.2721870190213644,-10.805439823303075
2023-12-07 12:18:37.541289,-29.005549926850463,0.4582782038019786,0.867987358010551,-18.966296814771656
2023-12-07 12:18:37.549582,9.050595463213268,0.2613850680625472,-0.62997794416994,6.986077520953852
2023-12-07 12:18:37.557640,34.76642544582527,-1.3297158051165263,-0.1641955010305629,24.690077349619653
2023-12-07 12:18:37.565801,0.7547490898238551,-1.2585439549042263,1.2897011984732072,1.3509468639679283
2023-12-07 12:18:37.565801,-36.944165841960114,0.5378838228186306,1.1546644269577877,-24.853579171850942
2023-12-07 12:18:37.573859,-36.62441121051802,1.866519108478313,-0.2055736198877847,-24.639710531156187
2023-12-07 12:18:37.590063,-11.202372084956975,2.9818374049203027,-2.4989105943272136,-7.458099588640227
2023-12-07 12:18:37.590063,11.916487133998167,1.246028545274785,-1.7737636521418874,8.808637004290672
2023-12-07 12:18:37.596575,6.24737069162144,-1.0051932129169907,0.7845583190554801,5.373869101856485
2023-12-07 12:18:37.598081,-19.719671388413264,0.2215255994859704,0.7099300314445247,-13.027674476644318
2023-12-07 12:18:37.606272,-25.11027526966966,-0.7084525059763307,1.952428824328259,-15.797088461718662
2023-12-07 12:18:37.614430,17.47484824288075,-3.9860940013788255,3.366008778413053,14.829597332553904
2023-12-07 12:18:37.630805,47.96204334564717,-3.216710913884496,1.1178695582921676,34.91793869194901
2023-12-07 12:18:37.639199,8.793687692068607,-1.1223642126588105,0.7889764200156143,7.354435752500926
2023-12-07 12:18:37.639199,-43.82606645548778,-1.565539015789065,3.7668995686041575,-27.769396203172487
2023-12-07 12:18:37.647228,-52.5763124577122,-2.3048586342220303,4.995793009672504,-32.82203253397005
2023-12-07 12:18:37.655301,-5.60849052303212,-1.685249412070764,2.1112396994705573,-1.2946564907941351
2023-12-07 12:18:37.655301,48.41887514481865,-1.837507054579096,-0.3921421284271709,34.380343863225924
2023-12-07 12:18:37.671572,35.89979097013461,-4.127606560091173,2.521497550883774,25.60801540225569
2023-12-07 12:18:37.671572,4.2207941018882,-3.3463668615534443,3.237971000910353,3.532001346812434
2023-12-07 12:18:37.671572,10.20833528484741,0.3555604321263011,-0.8506249843966986,7.148289928807397
2023-12-07 12:18:37.688407,38.84804951902624,-0.3455969361099595,-1.517318354026015,27.30403126038723
2023-12-07 12:18:37.688407,71.65364280578534,-2.5310269200521014,-0.9245392018193956,49.68638440337037
2023-12-07 12:18:37.688407,49.30394964434574,-2.211173910809126,-0.1648610216262747,34.36302935639977
2023-12-07 12:18:37.696417,-10.176117834207952,-1.237687279282554,1.8275523591219427,-5.775358386858677
2023-12-07 12:18:37.720953,-23.02508315043307,0.8558198550350283,0.3661125993539311,-14.164640050524891
2023-12-07 12:18:37.720953,-15.6979340105274,0.939664997963043,0.0035052728247836,-7.735334438859618
2023-12-07 12:18:37.729018,-4.181943909304991,-1.4707318669909006,1.9124157151382044,0.5784467594587358
2023-12-07 12:18:37.737352,7.939370085514981,-1.2159682563891718,0.9444916997612082,7.298115468781754
2023-12-07 12:18:37.745432,-24.900926602891666,-0.2802671438842758,1.6544394707124437,-15.560003733461588
2023-12-07 12:18:37.753621,-40.01646960182685,-1.4407342328713215,3.64271903687994,-25.65184864814025
2023-12-07 12:18:37.761718,7.992255328396927,-2.747938180855195,2.460750398033553,6.730382618723649
2023-12-07 12:18:37.769869,46.540543761249175,-4.4774751950002445,2.1736382961669936,32.54518663580582
2023-12-07 12:18:37.778034,36.58781047036026,-5.1923773566189615,3.368404897197902,24.95424031104008
2023-12-07 12:18:37.778034,-21.704115414658403,-2.074227653563504,3.318367890546677,-14.220039929526136
2023-12-07 12:18:37.786189,-65.58464034570082,-0.201408217348483,3.851150698764512,-42.8306419586307
2023-12-07 12:18:37.796764,-17.69093527044985,-2.687333816748318,3.7789650866029936,-10.779160626530642
2023-12-07 12:18:37.802275,36.78480571800944,-3.500646001238993,1.649664504654862,26.304693183197188
2023-12-07 12:18:37.810312,15.00991762063768,-2.581369359686345,1.918224075253621,11.82433750408522
2023-12-07 12:18:37.810312,-17.307008293938942,-3.644837024373819,4.625132450570872,-12.515691955037418
2023-12-07 12:18:37.818460,-28.45047402856116,-3.840035515331503,5.360719644627165,-21.41891361766075
2023-12-07 12:18:37.826570,-13.342872517784134,-1.78596571850236,2.585201346196892,-8.875737588792864
2023-12-07 12:18:37.834883,46.37170850929015,-0.4412245397468244,-2.0405068155779555,33.09819341404647
2023-12-07 12:18:37.842881,40.7361210361624,-2.696906187394092,0.2559330196296689,24.970399720432034
2023-12-07 12:18:37.842881,-2.918154999704469,-3.031293821278835,3.0727734147045185,-4.731624869365069
2023-12-07 12:18:37.859029,-9.599432673402696,-3.581769836011569,4.081901478122743,-8.476821371324032
2023-12-07 12:18:37.859029,21.4129433747281,-3.039152459183456,1.8560488718083308,14.231600311203769
2023-12-07 12:18:37.867174,24.70775500064008,-1.87741515322976,0.531517370495394,17.293670472085367
2023-12-07 12:18:37.875454,-32.65163562811504,-1.4810912917336063,3.4027988679561427,-22.850441631467227
2023-12-07 12:18:37.883638,-72.18455939870877,0.9735856158674558,3.370644497987388,-47.85424169822373
2023-12-07 12:18:37.896788,-49.240420388744376,1.950576576483193,1.196631170683197,-29.954125894626834
2023-12-07 12:18:37.899794,0.8616045886521696,-1.452988114300895,1.5255707966260328,1.7230701499342196
2023-12-07 12:18:37.899794,25.419444220397207,-2.6106973228842247,1.1114888482550929,16.74821494662135
2023-12-07 12:18:37.916179,6.464861743708439,-1.2512626664738593,0.8291074111472081,3.5818949242512987
2023-12-07 12:18:37.916179,-26.430991081871767,0.7513069035734931,0.8617150627813613,-17.652147430998628
2023-12-07 12:18:37.924318,-30.777891362750182,2.8955529158687017,-0.7647216024464977,-16.95868104299073
2023-12-07 12:18:37.924318,12.739641607014365,0.0404553046832087,-0.6444945078016828,10.860344055331504
2023-12-07 12:18:37.940906,49.02685100720159,-2.7733018066203825,-0.2956580780428267,31.972620252252643
2023-12-07 12:18:37.949042,28.366905871420503,-1.281113803845185,-0.5406819370475349,18.11030368515729
2023-12-07 12:18:37.949042,-24.83189514522907,-1.3709157872998674,2.7241726628856764,-19.72976836921416
2023-12-07 12:18:37.957467,-56.617746950592775,-0.5315129681286616,4.024015200311202,-39.51620982583073
2023-12-07 12:18:37.957467,-20.669738954977127,1.4080254488552737,0.2068634452921814,-10.112375343920624
2023-12-07 12:18:37.965931,22.88594694976614,0.585929866230647,-1.770124543407772,18.7615018465038
2023-12-07 12:18:37.974065,3.1997856628598904,0.1982830257231695,-0.3342034564262286,2.8931270871335864
2023-12-07 12:18:37.982118,-30.4086917220052,-0.150201170247979,2.004073570161488,-21.86146301481262
2023-12-07 12:18:37.998279,-27.971830919681093,-0.1216255651851271,1.845305183770257,-19.942360944787
2023-12-07 12:18:37.998279,20.766648289608035,1.076190885754248,-2.201745087867105,16.82877939781204
2023-12-07 12:18:37.998279,54.43869671101308,0.420214723262871,-3.685294115928075,40.16521034574609
2023-12-07 12:18:38.006431,12.259494435354924,0.3489674150249001,-1.0162617083953345,9.884537348572062
2023-12-07 12:18:38.014517,-27.376745097979327,1.6604093151119248,0.2608886181905419,-16.766587015303134
2023-12-07 12:18:38.022632,-27.38938479406012,2.344292984382744,-0.2921781388496358,-15.242942114692346
2023-12-07 12:18:38.030630,-15.1434852147249,2.1455952020693503,-0.7650807664627031,-5.69976722863181
2023-12-07 12:18:38.038633,18.654269845110463,1.0539786786167915,-1.9018409706303807,17.123025210095186
2023-12-07 12:18:38.046705,26.217415487280352,1.979907134043794,-3.263943016466792,23.376649068302257
2023-12-07 12:18:38.046705,-5.691686673615626,2.410419572198609,-1.7496561401107182,-0.2883093176699639
2023-12-07 12:18:38.054859,-7.821415607376692,1.225592348810884,-0.6178795021261275,-4.143307681662621
2023-12-07 12:18:38.071148,36.63319423070918,3.1189485813026967,-4.928513784231988,32.84309878557732
2023-12-07 12:18:38.079302,47.44818041704909,-1.195687165980876,-2.0363087061545024,31.949273938531345
2023-12-07 12:18:38.087421,-10.229300259946148,1.264841075731869,-0.4404889734392296,-5.365102018009535
2023-12-07 12:18:38.087421,-34.354852797465114,4.212270258108877,-1.2860003145535364,-16.42468006030779
2023-12-07 12:18:38.097010,-0.7880220301402708,3.275885372151165,-2.6045535070566914,6.592629834816007
2023-12-07 12:18:38.103518,46.733814222179774,2.224262938943373,-4.760552984830999,39.29841437414475
2023-12-07 12:18:38.111671,36.28380236500176,1.971970599616245,-3.890909240147786,31.11241674651968
2023-12-07 12:18:38.119867,2.816170034268497,2.6609359185758925,-2.3617566392818423,7.550450309672319
2023-12-07 12:18:38.127899,-2.757472604412533,3.358384257973002,-2.588144747428304,4.7780829763218
2023-12-07 12:18:38.136245,3.444913807669803,2.689088972695691,-2.377329522327063,8.505318844230793
2023-12-07 12:18:38.136245,27.817516796047503,0.5190116806445738,-2.1464816085805696,22.17867084486
2023-12-07 12:18:38.144347,37.89359008104597,0.2032527536404076,-2.578496471362533,28.574220323243267
2023-12-07 12:18:38.160585,-2.0015958159098366,2.361519551431987,-1.7977430843630686,3.296004775121885
2023-12-07 12:18:38.160585,-49.9289371938304,1.571533508899322,1.96132072192689,-33.55014749323596
2023-12-07 12:18:38.160585,-50.69159709980445,1.803418786099012,1.9014125702622764,-32.95778290347875
2023-12-07 12:18:38.168751,0.624536341275626,2.3671126258399835,-1.880783550386213,6.0349934295325545
2023-12-07 12:18:38.176875,21.41676369270096,-4.544830195060935,2.21001179985888,5.461433836993259
2023-12-07 12:18:38.184943,-22.23795566477736,-5.458028348425067,5.750433916119168,-28.97593480407012
2023-12-07 12:18:38.197115,-49.01316796029205,3.270412208949004,0.6006553574597189,-28.91578601109916
2023-12-07 12:18:38.197115,-26.684801469452925,4.40151079519457,-1.7618069428608734,-10.062901691136751
2023-12-07 12:18:38.209365,-2.0989121793159424,1.6378782925498363,-1.2371793877276342,1.2163427857222298
2023-12-07 12:18:38.209365,0.9036940763777817,1.815542868238449,-1.5534326712651254,4.075872029147254
2023-12-07 12:18:38.217563,3.296603840037624,0.462054309866345,-0.6127022260692601,3.2967300135070965
2023-12-07 12:18:38.217563,3.3125560287404645,1.3474562296075083,-1.3451072634834542,5.068712979944089
2023-12-07 12:18:38.225739,6.306828409145057,3.190128012007391,-2.9989102676549075,11.342967585933335
2023-12-07 12:18:38.250393,44.57547994350445,2.744731067729352,-5.124504478408513,39.00080116994318
2023-12-07 12:18:38.258479,-14.759139606664808,4.247223980890993,-2.518102834085658,-2.575311672275157
2023-12-07 12:18:38.274736,-34.40617898942882,-4.532939604614682,5.619057407711833,-37.54275536272588
2023-12-07 12:18:38.282918,-20.87068180828125,-8.785991500698202,7.987513443625041,-38.00727878546838
2023-12-07 12:18:38.388636,-22.0801793510586,-6.769417823415346,7.179198109972182,-34.48653090664882
2023-12-07 12:18:38.397147,-20.91463587320121,-6.472360153372171,7.08686958439274,-33.62256242357022
2023-12-07 12:18:38.413723,-42.86930377363053,0.757243358770106,2.189219393868153,-30.27262119740879
2023-12-07 12:18:38.413723,-7.029657216759264,1.3597606237635071,-1.1636868973015182,0.9181183781968876
2023-12-07 12:18:38.438301,40.79628002199631,0.2417247433904869,-3.2445203226955965,34.915248087190896
2023-12-07 12:18:38.446427,22.967682539208614,1.752823789303044,-4.105732622994161,23.24021129469852
2023-12-07 12:18:38.454568,45.91789915977444,3.345034237521141,-7.13434671871685,46.87969046864908
2023-12-07 12:18:38.585306,16.462651291541185,5.457007300457183,-3.9167588164569698,23.304446446573287
2023-12-07 12:18:38.593505,16.780978149305103,6.904030252768767,-4.996558737178316,29.32960632057502
2023-12-07 12:18:38.625955,18.25827904119717,3.4692010440844685,-1.6681074624728502,20.474392884179505
2023-12-07 12:18:38.634027,10.146459825799395,4.075042922316173,-2.0522527567109554,20.470205120742047
2023-12-07 12:18:38.658564,50.14254178345623,-0.1906157908326515,-1.425943061996672,45.10776389669265
2023-12-07 12:18:38.666879,16.023635025545246,1.7923890057775291,-0.7125467493784665,17.768000508319673
2023-12-07 12:18:38.666879,-4.550540382248589,3.92281811784331,0.3462499767683407,7.939306162825645
2023-12-07 12:18:38.675049,34.559528135462386,2.323045883530592,-0.1586422217158375,36.12866626198553
2023-12-07 12:18:38.691775,52.64063643232506,0.7882036790973764,1.4931885366421638,40.12294108161242
2023-12-07 12:18:38.697801,-1.2737940168533202,3.0774351232613566,2.814512642398994,2.1274048390567666
2023-12-07 12:18:38.707980,-25.279894382025663,4.498594257935513,2.1557048042821947,-5.486695930627531
2023-12-07 12:18:38.707980,10.140458602965268,3.177514157779889,0.7330802056152379,25.00685289887129
2023-12-07 12:18:38.740613,19.803395192886345,4.338901457287356,0.4571052007162782,17.455345997446386
2023-12-07 12:18:38.748682,-7.414842147723458,5.0648121228933976,-1.159101475001341,4.9617816319961
2023-12-07 12:18:38.764956,24.95562746218715,3.616057253868404,-2.983677870898228,30.45449777848957
2023-12-07 12:18:38.773432,61.83334941324491,2.0086767199095257,0.0891906415417062,49.183191011735
2023-12-07 12:18:38.781881,13.750915750853236,2.080464321227524,2.0055352412267977,12.297262953060924
2023-12-07 12:18:38.797772,-21.234614196485342,2.1620099636311423,1.4933175896548538,-8.799252131386737
2023-12-07 12:18:38.805803,-0.2414665188486462,2.218310785884088,1.287356862691134,11.228099357310962
2023-12-07 12:18:38.830402,66.26486546677911,0.0278946986684795,2.1150357830139543,50.24889824163346
2023-12-07 12:18:38.838514,-8.316069096537415,-0.4342044207876763,8.485892821129358,-10.895949193503698
2023-12-07 12:18:38.838514,-39.62771665564176,4.099933326657498,10.628425469026809,-34.986722138353485
2023-12-07 12:18:38.846745,-13.783453252361362,4.118491783520122,8.861170019652482,-5.99025934202471
2023-12-07 12:18:38.855231,13.689058550425203,0.0321017756658062,12.651087201163268,16.281214881826106
2023-12-07 12:18:38.871683,28.601308524139235,-1.7446904837169024,10.062856924364754,18.91886780899975
2023-12-07 12:18:38.871683,-10.486615742774848,-2.395767384040434,4.449651474060178,-13.771759802621688
2023-12-07 12:18:38.896064,-15.056543727746623,-8.750806732639859,4.369314787548402,-22.021837697168685
2023-12-07 12:18:39.066713,-33.39653031837567,3.93631663002863,-3.1683345926429625,-34.10939158199541
2023-12-07 12:18:39.066713,21.18617999835369,4.303629449232398,-0.3498249122866985,10.377584843469416
2023-12-07 12:18:39.066713,3.103950553732356,-0.8949480502100448,10.160959360267563,-13.714149087189009
2023-12-07 12:18:39.082981,-50.44647323468617,-2.1971381470609384,3.7615120566914175,-42.15895904175928
2023-12-07 12:18:39.098081,-8.426113770884912,-8.178122437284344,3.66061833214461,-0.94272736188454
2023-12-07 12:18:39.099099,48.3009355131192,-9.59637735489892,-4.808599022912778,38.6760130388714
2023-12-07 12:18:39.107267,44.47432647312428,-4.492881413795314,-6.145983109892238,31.913989056606805
2023-12-07 12:18:39.115291,-16.973651099306334,-5.253641785795761,2.1058053126899745,-9.383485775476336
2023-12-07 12:18:39.123485,-36.46482850990476,-2.8303612976341377,-1.662333713187862,-14.81191109281531
2023-12-07 12:18:39.131538,7.409437534161896,-1.972383177794971,-8.684501301050764,20.242363475836072
2023-12-07 12:18:39.156231,19.104228799981698,2.856793258612304,-8.3928654904571,15.460917881271664
2023-12-07 12:18:39.164337,-15.91320883182893,2.451692769947067,-3.179348052620696,-2.722697320030699
2023-12-07 12:18:39.164337,18.787291465920383,5.749163120024467,-0.1623337065937483,31.65382658637941
2023-12-07 12:18:39.204943,16.802035264094958,9.460682145713726,-4.676191772205713,33.98473686636102
2023-12-07 12:18:39.245999,40.60305790686346,10.18800064171548,-2.690362246696461,32.60512030564964
2023-12-07 12:18:39.262643,-2.41021027889514,6.199580030457881,-2.338269142900812,-3.5794794685495424
2023-12-07 12:18:39.262643,13.329228792309518,2.553349302337887,-5.490107476585161,16.50877505991198
2023-12-07 12:18:39.279040,40.36664259670973,3.4187619479889912,-0.0570543062912591,32.6537050918297
2023-12-07 12:18:39.287143,-1.9968330381264616,4.527200413446372,0.5809457090991164,1.7297397488568234
2023-12-07 12:18:39.295323,2.166128249515544,2.6296753664643338,-1.5698382323007734,16.261769960461653
2023-12-07 12:18:39.328164,-2.821692116665814,5.386113686360498,4.401797908809404,6.215719004888301
2023-12-07 12:18:39.344425,-12.52117115369404,0.1277588003210931,2.825820979558601,14.255342825433669
2023-12-07 12:18:39.360685,45.141115567901394,-2.186705495739134,2.1467571873840106,37.66121748150304
2023-12-07 12:18:39.368849,-6.727030147157462,4.333136511178858,2.305748551166124,-2.939653710104767
2023-12-07 12:18:39.376899,-12.901420575526029,7.171961397479557,1.5921229637822454,-4.156666549091843
2023-12-07 12:18:39.385078,34.59238931749341,3.788985681537961,-0.4618987159059128,34.0686823332269
2023-12-07 12:18:39.401258,55.415223287114735,-0.1588675269614711,1.6071018060351283,50.88868332123076
2023-12-07 12:18:39.409330,-3.5024693984068085,0.4508130389764305,1.2241567657981074,2.7413712317062355
2023-12-07 12:18:39.417556,-22.916084278204515,0.5331126697513524,-1.9675273125328527,-12.989758158681733
2023-12-07 12:18:39.425556,26.459656305733976,-0.0088487953613284,-0.4643352880257048,34.156641944872995
2023-12-07 12:18:39.458429,60.13836744367031,1.9211937413974864,2.0428422654366254,49.0988850373518
2023-12-07 12:18:39.466555,-4.177887628851408,2.96371898941002,2.5387629529911893,-1.401000289730046
2023-12-07 12:18:39.466555,-28.272384565568835,0.6657977993311454,1.0888857196234998,-16.521509999684604
2023-12-07 12:18:39.474647,10.62694732314828,0.175933822109719,-0.391263874903105,15.17513197750512
2023-12-07 12:18:39.474647,64.67305911842178,1.0952815713105422,-0.6392318962394997,47.73071142271493
2023-12-07 12:18:39.491092,61.88215810107891,0.3714124512146195,-1.2888895501515367,38.85749516414119
2023-12-07 12:18:39.499115,9.235734491226571,1.7686980924346558,-1.5291601793907368,6.349348342029982
2023-12-07 12:18:39.507605,-20.68485429574803,2.364891211772092,-0.8112260124396797,-6.098673097345587
2023-12-07 12:18:39.515634,5.868463492221474,-1.142825415272827,-1.9303365541992707,17.531214515712634
2023-12-07 12:18:39.523664,55.37931424169432,-3.1233832697106263,-4.390139510713173,48.90180399608365
2023-12-07 12:18:39.531924,59.02593009907561,-1.9880365252280576,-3.4178758048829434,42.918141600489655
2023-12-07 12:18:39.540031,10.5224435101364,-1.4174925289175635,-1.526153275929844,2.073765899850699
2023-12-07 12:18:39.564665,-21.43411270820601,-1.916114120128096,-2.6559023743473045,-24.62418958920017
2023-12-07 12:18:39.564665,-0.9856325248171848,-3.414593040128365,-5.015078997852715,-6.41777580727476
2023-12-07 12:18:39.564665,41.00428910524758,-5.581688818972592,-6.426976657796308,33.71267475219832
2023-12-07 12:18:39.572727,47.82548921453712,-2.769451579463508,-3.039400613958602,40.22694353484045
2023-12-07 12:18:39.580871,7.776725005490821,3.319933118392353,1.7153211113198463,4.236228041036791
2023-12-07 12:18:39.597531,-29.259019510065823,4.287046840893111,0.6197271573996059,-19.02889915848278
2023-12-07 12:18:39.605712,-19.158217053697904,2.114225287362853,-1.1939659066815451,-0.9298705638360972
2023-12-07 12:18:39.605712,30.880698685847285,-0.1223708203114515,-0.8505449294867581,30.12067125443061
2023-12-07 12:18:39.613708,56.50200600384108,-0.9129927227589776,-1.868376016955096,35.1976884231258
2023-12-07 12:18:39.621708,18.98594144106432,0.6804116542888563,-0.1127968244770094,6.163889472288517
2023-12-07 12:18:39.646410,-24.890763432251934,0.0438705199986388,3.74315495327756,-18.91075340745088
2023-12-07 12:18:39.654409,-14.492898158139438,0.0717267323177913,2.033854123911249,-6.15628668512898
2023-12-07 12:18:39.670624,30.226723067905603,2.400488391437371,-0.9879163465641368,27.457918547878787
2023-12-07 12:18:39.670624,44.96679957178144,2.091812056493066,0.1134302169474102,39.48925645844523
2023-12-07 12:18:39.678678,9.278286174082623,2.8010542611397287,0.9355804586734114,12.657182671422747
2023-12-07 12:18:39.703125,-27.701814794695533,4.351516900940315,0.9848977354657644,-19.519339125383272
2023-12-07 12:18:39.703125,-20.40562199098501,2.935128010078978,0.966586111384879,-14.428791558222306
2023-12-07 12:18:39.703125,20.20209846402764,1.9041416263242184,0.9256051879093268,21.41359406881656
2023-12-07 12:18:39.711345,43.55875710574773,0.9424130482374568,1.4769502778345729,39.96216029909989
2023-12-07 12:18:39.727603,24.01383299880588,1.4837050044947122,-1.7744483787447851,17.166054478157978
2023-12-07 12:18:39.727603,-15.502177873781848,5.341409166192628,-2.126183969493296,-12.52213615223002
2023-12-07 12:18:39.744057,-33.106895536837044,2.0276156976757846,5.874189957715298,-12.407294256579672
2023-12-07 12:18:39.752190,1.1058120178391273,-7.794563051646998,7.216477933191437,11.74114139664566
2023-12-07 12:18:39.760287,34.549064679934766,-8.074625776483861,1.188957680715171,26.66410221804074
2023-12-07 12:18:39.768552,8.675583153285187,-1.8793177367007547,0.787252348371696,8.725442934041933
2023-12-07 12:18:39.776667,-23.78382320404112,-0.7194383330705817,2.29499493121104,-18.0468927516664
2023-12-07 12:18:39.785009,-21.92264737438949,-1.4021681222179785,0.2388511914886074,-18.28201746260592
2023-12-07 12:18:39.793110,1.2863824324733353,-2.069776404224539,-1.005588517178267,5.144499828827154
2023-12-07 12:18:39.801122,29.02061560851163,-1.9685088101254995,0.6086651963447792,24.27617618379335
2023-12-07 12:18:39.817479,18.808562382671184,0.8996699140995766,1.4862734222565523,13.779321971816012
2023-12-07 12:18:39.825691,-22.205315191474213,1.5019629126106009,0.4660830454262982,-14.244066289946511
2023-12-07 12:18:39.834099,-33.61215660854408,0.8974196413535739,-0.2526099121712409,-21.645277791870125
2023-12-07 12:18:39.842301,-0.7356460184671008,0.7474300766929273,-0.8271398319397746,2.094848409403094
2023-12-07 12:18:39.850587,30.406412268731543,-2.90340833052852,-0.7931683614363995,26.13700779620634
2023-12-07 12:18:39.858714,15.31766107477036,-4.172912949419068,0.2393732529628365,15.788299566988057
2023-12-07 12:18:39.867044,-19.570005617313047,-0.4262769088226386,1.029763786270739,-12.189726975926597
2023-12-07 12:18:39.891565,-28.255785912231545,0.6812632626195948,1.4125221188122807,-16.387562156961803
2023-12-07 12:18:39.891565,-8.092275138858009,-1.0067684571437492,-0.0947587911630787,2.3032154641353686
2023-12-07 12:18:39.899578,17.32601608648756,-1.7520505543637792,-2.132238909652822,18.22126464623873
2023-12-07 12:18:39.907744,16.291723549608466,-1.2116530351892405,-0.5378974186794758,15.213831078314913
2023-12-07 12:18:39.907744,-10.836270063831837,0.4111952823005642,2.2847198987657364,-4.439871916499219
2023-12-07 12:18:39.957180,-30.596662639651857,1.1083219695040627,1.816155974008396,-16.459320862815378
2023-12-07 12:18:39.957180,-16.54838440611249,0.0134476102032332,-0.2285498870341714,-3.9863835898029
2023-12-07 12:18:39.965298,13.537416526438514,-0.1958095913207209,-0.0549142296000102,16.028446897697542
2023-12-07 12:18:39.973402,13.099119294594782,1.0278188371455192,1.433245932399814,17.26170568168253
2023-12-07 12:18:39.990075,-12.52092923364626,1.1427810767218156,0.7706467682504013,-0.4645079307172991
2023-12-07 12:18:39.997581,-26.89438742162742,-0.3712085499802962,-1.3284459628284453,-14.605620758060814
2023-12-07 12:18:40.005615,-14.396592043251587,-1.6921385392917692,-2.0047679513996424,-6.700075834675715
2023-12-07 12:18:40.038661,14.963719504429106,-2.004664281449738,-1.7539301864955623,12.716110646011304
2023-12-07 12:18:40.038661,21.138351223635304,-1.7919720745250485,-1.428767874523866,14.71100363100012
2023-12-07 12:18:40.038661,-0.5453969688120888,-0.8134894162011699,-0.399501447082782,-1.9749665450871507
2023-12-07 12:18:40.046908,-15.354025081326936,0.8682541957626689,0.509798900398842,-12.341617320941053
2023-12-07 12:18:40.063224,-8.788546896804014,1.34265460235768,0.4063899411916444,-4.009151894322854
2023-12-07 12:18:40.071339,12.803284247526008,-0.3003883938611382,-0.7647773613437354,11.607744033000222
2023-12-07 12:18:40.071339,21.59658671967026,-1.6132793720624432,-2.209544104111353,14.175090620138707
2023-12-07 12:18:40.087446,6.957425462777032,-0.1398669989517764,-1.5869592624340518,3.08540455953808
2023-12-07 12:18:40.097461,-8.69872252573673,1.4884316480640174,0.4192682709666766,-6.034559405511325
2023-12-07 12:18:40.103468,-9.17553167512476,0.6955661401030273,0.8013843353948045,-4.988012792421012
2023-12-07 12:18:40.119643,8.960202932843055,0.4403168495747012,0.3923378880415785,6.413028378984243
2023-12-07 12:18:40.135992,20.00747514525668,0.9304018160456444,0.939356950810318,14.096879836652326
2023-12-07 12:18:40.152258,3.440477317670549,0.2073552344082226,1.1942092269052542,4.3122110155681606
2023-12-07 12:18:40.152258,-14.9056686836778,-0.2431942484244066,0.1173983130460146,-9.268202449270746
2023-12-07 12:18:40.152258,-13.012123709539209,-0.9869801503514976,-1.2689830329732228,-8.584884656153344
2023-12-07 12:18:40.160381,3.2670586542197007,-1.883513789809413,-1.847716312512511,2.738762723062465
2023-12-07 12:18:40.168661,13.88388515700218,-0.9953993423423751,-1.298953760419458,9.351835413753571
2023-12-07 12:18:40.185259,4.820638932898862,-0.007994519184957,-0.1881464115793065,3.077733021673376
2023-12-07 12:18:40.193365,-11.449229373876452,0.2929793403313016,0.4862844879250941,-7.421326553910697
2023-12-07 12:18:40.217844,-13.411441046943771,0.1901262267092963,0.7398054063063305,-7.657186552804833
2023-12-07 12:18:40.217844,2.1027974450338967,-0.4021324185694235,0.5594383801565367,2.013039893321849
2023-12-07 12:18:40.217844,11.679530948254213,-0.2915308837353209,-0.0423415284319844,6.70999168781323
2023-12-07 12:18:40.225905,2.3007730178653354,-0.2823259723023638,-0.1548573806873833,0.3738851789711118
2023-12-07 12:18:40.234242,-8.697381516240574,-0.2443703057981548,0.336048785788667,-7.741392564165845
2023-12-07 12:18:40.267232,-10.226054888909909,0.6517636481371206,0.9280807183448192,-8.837246908164877
2023-12-07 12:18:40.267232,-1.3921541789718337,-0.2815845157233665,0.5146143042574551,-2.3809318514494766
2023-12-07 12:18:40.267232,10.000825800696932,-2.2731600887506045,-0.6922812768741037,2.899913963868818
2023-12-07 12:18:40.275266,4.948098734991789,-1.846218025722722,-0.3015363722388507,-1.5980826617804913
2023-12-07 12:18:40.283513,-11.21217947493306,-0.5124038727002835,0.7576657028713971,-10.794224226030163
2023-12-07 12:18:40.291854,-14.9318827193048,-0.2922858252440393,0.3435898988444532,-13.767431143263742
2023-12-07 12:18:40.299869,-5.467603937493446,-0.4373932992122787,-0.6265207339504737,-8.599592800239153
2023-12-07 12:18:40.307921,-0.3345930347190091,-0.4782977508601621,-1.0366488956324331,-4.073490487618042
2023-12-07 12:18:40.316093,-4.67622245272416,-0.3893670578273719,-0.4756466600717975,-7.111535885596241
2023-12-07 12:18:40.324224,-10.291212714545496,-0.4011210382056384,0.0141520565278438,-13.114127679708442
2023-12-07 12:18:40.332501,-14.700765625451814,-0.5760215060143334,-0.3684730968591724,-15.748897353983224
2023-12-07 12:18:40.348821,-14.445826166406857,-0.6492540821972079,-0.4337846528635296,-13.497079000393228
2023-12-07 12:18:40.356923,-6.833746423794049,-1.0732713800693503,-0.1791021035207798,-8.936013464257234
2023-12-07 12:18:40.365113,-4.284522441795227,-1.5172010395415831,0.1227434148261004,-9.11304033516907
2023-12-07 12:18:40.381296,-11.703907828165912,-1.1664729081373404,0.6011851762697853,-14.571925268379452
2023-12-07 12:18:40.389492,-17.40150590671328,-0.8947345829205012,0.7646414561895841,-17.31727464729635
2023-12-07 12:18:40.397516,-14.763474820802678,-1.1891811489599913,0.8871780357898857,-14.08180978455972
2023-12-07 12:18:40.405618,-7.062832735391246,-1.1826905449571747,0.9573771491187576,-8.791603682380591
2023-12-07 12:18:40.421900,-3.945909403746619,-0.8150003561044182,0.945166764904112,-7.255841053945809
2023-12-07 12:18:40.438406,-9.685775705239946,-0.5770848396603973,1.165516954896623,-10.806567298230156
2023-12-07 12:18:40.438406,-14.07309648285426,-0.4637857321669671,1.041561457911192,-13.23863992400288
2023-12-07 12:18:40.470975,-10.144840616246745,-0.5247955180712061,0.7321285597102478,-9.689557380626002
2023-12-07 12:18:40.470975,-3.2682357653799703,-0.7702420858892877,0.6107445448450397,-3.907970830846951
2023-12-07 12:18:40.470975,-0.572879456580427,-0.6509593292225047,0.485916120686725,-2.30057929944925
2023-12-07 12:18:40.503673,0.085045049449198,0.0451442685558257,-0.040721365848005,-0.0880087349785582
2023-12-07 12:18:40.503673,-36.89808058555793,2.10713472563079,1.3157012355072892,-18.23441984972165
2023-12-07 12:18:40.503673,-12.846225164568944,0.7936383249222243,0.4191313124673992,-6.462524336805883
2023-12-07 12:18:40.519903,40.47381110421129,-2.298532612534356,-1.4655988770681978,19.90661530484279
2023-12-07 12:18:40.528191,51.22759883703215,-3.120516069037139,-1.727552409720134,25.571765588922105
2023-12-07 12:18:40.544579,23.25812352952132,-1.3800291221973082,-0.8024153370272848,11.59906690264119
2023-12-07 12:18:40.552737,-21.21162378583696,1.1904605417061658,0.7746519633895732,-10.377039856713438
2023-12-07 12:18:40.552737,-37.41978082702663,1.8378469045227803,1.517769169601839,-17.919691749602944
2023-12-07 12:18:40.560844,2.148047966127501,-0.440523651954765,0.1188035095302459,1.708189755293322
2023-12-07 12:18:40.568977,37.150724795963306,-2.043305645584797,-1.3499163622671773,18.48859535685673
2023-12-07 12:18:40.593750,26.59558406663984,-0.9151502197309552,-1.2666814909826032,12.5318865465437
2023-12-07 12:18:40.597759,-1.901639318935742,0.8649509543525197,-0.3396145783065538,-1.8247638723021768
2023-12-07 12:18:40.618064,-15.362032654663972,1.445632381888396,0.2465756004155283,-8.214037566719702
2023-12-07 12:18:40.626121,5.8604166516521685,-0.0858634308120225,-0.320485313754214,2.844485119572468
2023-12-07 12:18:40.626121,31.276899332879456,-1.7974436758294463,-1.0695193501762292,15.903439632074482
2023-12-07 12:18:40.634425,23.21937082099997,-0.8336115771296037,-1.0675055912218847,11.17311171189987
2023-12-07 12:18:40.650695,-6.108107975347379,1.3301178673685556,-0.3140797379706976,-4.2103788759738725
2023-12-07 12:18:40.650695,-38.72913050688362,2.667767354441131,1.1215635960024497,-19.82261306447939
2023-12-07 12:18:40.658760,-29.497428467108463,1.8302969464349104,0.9771626825902556,-14.710444466416725
2023-12-07 12:18:40.675130,19.161484360963826,-0.9175884564347264,-0.7307972874840268,9.753529015826206
2023-12-07 12:18:40.683270,11.280966723638995,-0.7551161243889408,-0.301662371757806,6.136433483301811
2023-12-07 12:18:40.691482,-38.536250361467005,2.385409265449665,1.2497352895846665,-19.50364075768012
2023-12-07 12:18:40.699510,-41.31246838644026,2.8810651417113964,1.1581759805491163,-21.370527211096103
2023-12-07 12:18:40.740592,-10.841985950101964,0.6848719751429367,0.3687765192530089,-5.248921690114247
2023-12-07 12:18:40.748868,12.20392057373122,-0.5651232453716752,-0.4488256122832331,6.455235241295364
2023-12-07 12:18:40.748868,12.48178182388878,0.0410404032741262,-0.7983512072120635,5.797104848742999
2023-12-07 12:18:40.756871,-15.501283778849087,1.6466640474961822,0.1310281884541352,-8.672339276574467
2023-12-07 12:18:40.764873,-42.1662683856713,2.8505422394579485,1.190656744314734,-22.081085690748488
2023-12-07 12:18:40.772872,-31.027482153961213,1.8251720435849053,1.0348877122972908,-15.796290849058495
2023-12-07 12:18:40.789103,7.741718670776765,-0.5558937345370533,-0.158730656685367,4.531116694494253
2023-12-07 12:18:40.798148,29.08583127363925,-0.7555301939940529,-1.423413036939575,14.292950153672844
2023-12-07 12:18:40.805156,15.77214699229804,0.8647767405652437,-1.4607685528070564,6.20036934436742
2023-12-07 12:18:40.813164,-16.93708050415336,1.68429979088171,0.1784101916221681,-9.590930742661614
2023-12-07 12:18:40.829441,-32.7061167585163,1.556900461468396,1.2652904041576798,-16.428222426522762
2023-12-07 12:18:40.837856,-0.5727203459038814,0.3050818780146752,-0.080587026996836,-0.1495682743520845
2023-12-07 12:18:40.854343,32.314240062958724,-0.5792160561222093,-1.689704934223245,15.861667164792658
2023-12-07 12:18:40.886742,19.46054588405177,0.5328343112631739,-1.4973799514864936,8.452201575658455
2023-12-07 12:18:40.886742,-6.641507560906119,1.44125272447262,-0.350819408588117,-4.687996618930712
2023-12-07 12:18:40.886742,-9.136599181440555,0.8919894580178032,0.1187982678885162,-5.010307044280607
2023-12-07 12:18:40.898299,27.41986744557404,-1.0276529498092934,-1.1059877536697056,14.480873588978776
2023-12-07 12:18:40.902808,50.49431353574304,-2.277943553172576,-1.8692159308836565,26.72716006628403
2023-12-07 12:18:40.919197,8.62751993470011,0.1076495494153834,-0.5809133167126008,4.049698156955227
2023-12-07 12:18:40.927271,-16.876743911665727,2.019934889917508,-0.0444201578189857,-10.3302070668749
2023-12-07 12:18:40.952062,-0.7301290838874217,0.4084851183259517,-0.1565106853234721,-0.6312046811094193
2023-12-07 12:18:40.952062,-1.617260723617414,-0.8650297921304745,0.6084696187359284,0.7213962822743901
2023-12-07 12:18:40.952062,6.331252453740193,-1.04873865329061,0.229554299501644,4.801837292457415
2023-12-07 12:18:40.960247,6.555434967846857,-0.3431134398847359,-0.1871467963873027,3.8384772078908975
2023-12-07 12:18:40.976550,-29.734620832779022,1.564352185917492,0.9656414483088782,-16.098928422375735
2023-12-07 12:18:40.992849,-22.66008516822496,0.5881059167730338,1.0621555613274212,-11.521646155438372
2023-12-07 12:18:41.009015,31.81384097081458,-3.2917905861100096,-0.1203416607476454,19.63877988494476
2023-12-07 12:18:41.017185,53.74744986538914,-4.162312147945851,-0.949875833351105,31.529384796429483
2023-12-07 12:18:41.017185,20.21075930973426,-1.409383638243133,-0.4248889719585233,11.840706467578553
2023-12-07 12:18:41.017185,-44.31943602887264,0.7547252638517645,2.224445013826552,-22.70968664904094
2023-12-07 12:18:41.033570,-53.75769558882013,0.3411791922452376,2.990274343786763,-27.020486199005862
2023-12-07 12:18:41.050153,15.46037400377962,-1.3940597165622035,-0.145553885487541,9.535221601118762
2023-12-07 12:18:41.066452,39.77847546378664,-1.657217528455602,-1.4147137742274198,22.139883642501413
2023-12-07 12:18:41.066452,2.8102860829434,-0.1693193305600115,-0.0589321911295721,1.7790191011938117
2023-12-07 12:18:41.082645,-18.612695205327533,1.4846462098659816,0.2856143475974238,-11.116398995656144
2023-12-07 12:18:41.090815,-34.10090636739674,1.9611324756289008,0.9334101625869896,-19.46285292322357
2023-12-07 12:18:41.106405,-16.28563722859209,-0.8619878049281924,1.419936640022922,-7.051051221192371
2023-12-07 12:18:41.122686,35.130636352337135,-3.704795855811125,-0.0209580038974635,22.469044015486293
2023-12-07 12:18:41.122686,32.186729574855825,-1.671980764297106,-0.9357656916463556,18.61043590108557
2023-12-07 12:18:41.122686,-1.4055359755951315,1.137242566645907,-0.5230467066996897,-1.978324350188304
2023-12-07 12:18:41.139093,-7.601063792162298,0.4439849918163181,0.1966121231549675,-4.394443554384384
2023-12-07 12:18:41.155385,2.1735643409834693,-1.7443324602044186,0.827697197767124,3.375526181033245
2023-12-07 12:18:41.163504,34.13700763162894,-2.261700058607689,-0.6807001636247452,20.78666916754
2023-12-07 12:18:41.171511,44.01979673223611,-0.8495233661945283,-1.9939118291579483,24.267811448677
2023-12-07 12:18:41.171511,-26.27837693693238,-0.1352119912381604,1.5343614299155697,-13.676142153961807
2023-12-07 12:18:41.187824,-70.3470247570578,0.1833859227423711,3.809020013846013,-37.369814304728685
2023-12-07 12:18:41.198496,-4.48319486871261,-0.0391145100839469,0.2849056130844178,-2.149927839505126
2023-12-07 12:18:41.204013,42.22308882823669,-1.7222053689192496,-1.383362660846859,24.758076290083046
2023-12-07 12:18:41.220226,13.863616993897724,-1.5239293089652746,0.0711814219246997,9.396895151741266
2023-12-07 12:18:41.244715,-3.5059559761103114,-0.768998572349085,0.5923996255942463,-1.0463462734735125
2023-12-07 12:18:41.244715,-11.033992833842245,-1.098730202353854,1.1627299125796773,-4.86650888149552
2023-12-07 12:18:41.252865,-6.24357599635451,0.4880613946899303,0.0917616261933169,-3.783934023673058
2023-12-07 12:18:41.285450,22.63834142407418,0.6478432409113629,-1.5278771092068606,11.956236328225843
2023-12-07 12:18:41.285450,12.25082439302792,-1.2645069594247813,0.0347214182795537,8.359848195551473
2023-12-07 12:18:41.285450,-22.88168676024072,0.7432030912912017,0.8411433873071898,-13.239724731616672
2023-12-07 12:18:41.293557,-41.58219032190538,3.227092697535086,0.520151012447074,-26.33533183121352
2023-12-07 12:18:41.301608,-36.51130961281166,-0.4482924112431264,2.1767473470564607,-19.59937997101614
2023-12-07 12:18:41.317874,14.903360960993908,-3.763333594717656,1.199014895199009,12.46117204813099
2023-12-07 12:18:41.325891,41.32398001740141,-0.1442732041701934,-2.080206944344719,23.34748701595589
2023-12-07 12:18:41.342305,-9.917004313903933,3.280526109188225,-1.187425231453524,-8.906774138452501
2023-12-07 12:18:41.350548,-54.447599841044166,4.409323813597702,0.5481459666911382,-35.036247816872894
2023-12-07 12:18:41.374712,-38.90816996262311,3.1864878402628096,0.3811893352174518,-24.98882536071037
2023-12-07 12:18:41.374712,2.5303479157556734,-4.162202460466154,2.0502554545399865,5.923592810793983
2023-12-07 12:18:41.374712,8.914699233742546,-2.345263231214212,0.7767606920031555,7.664389699364598
2023-12-07 12:18:41.382731,-23.36492811261198,8.282615266667506,-3.0798838619070823,-21.54879476149377
2023-12-07 12:18:41.390958,-38.11621802968047,5.676861925084652,-0.9909255412293032,-27.45780976432664
2023-12-07 12:18:41.406588,-14.214100511471443,-2.1996276935168333,1.861727219460747,-5.881913224211174
2023-12-07 12:18:41.422841,30.315618590419028,-5.462277871770797,1.296873847929941,23.02981064709928
2023-12-07 12:18:41.455568,33.7886205773149,-3.768375606126949,0.2556726350753615,23.42126659158487
2023-12-07 12:18:41.479781,-20.33572171468838,1.1867556936718575,0.4299722409515275,-12.7215207714706
2023-12-07 12:18:41.488128,-56.874393262168425,-0.7222408235113351,3.247951788054461,-31.98908472232393
2023-12-07 12:18:41.504547,-56.01323736335599,7.0834946417895726,-0.8382480193918823,-39.41005932665457
2023-12-07 12:18:41.553600,24.66438780689877,2.8174149976363982,-2.685155745292834,11.571731279741233
2023-12-07 12:18:41.553600,27.39957028513156,-4.097747148698552,0.755736027900701,20.138509310449056
2023-12-07 12:18:41.561731,-3.947496213392697,1.3699360834372112,-0.5055600440787636,-3.587594536674146
2023-12-07 12:18:41.569783,-29.50316727440496,0.8117733655125765,1.0485694984512657,-17.98741209364769
2023-12-07 12:18:41.586139,-11.759788606382608,2.57365549718944,-0.7305728498300464,-9.273184728410536
2023-12-07 12:18:41.618681,36.66860713102477,-1.2244548280635574,-1.1749033429779097,22.806387117082306
2023-12-07 12:18:41.618681,18.35983441626832,-2.7944861159306424,0.5345651064152523,13.582534062216268
2023-12-07 12:18:41.618681,-39.85973048970656,4.322711002057237,-0.2566766112205889,-27.609168087869243
2023-12-07 12:18:41.635454,-35.538467336423565,1.4484769745825603,0.9943990866656144,-22.386251352314748
2023-12-07 12:18:41.643752,15.63726248992645,-2.562593509848148,0.5355230910643902,11.623524634422669
2023-12-07 12:18:41.660019,44.85306719044189,-1.5746943661207098,-1.4028344932229155,27.915204283506466
2023-12-07 12:18:41.668047,22.354673419622465,0.3297904120234514,-1.287594593731328,12.693719106473075
2023-12-07 12:18:41.700428,-19.349698237179307,5.851018379479363,-2.089861671369337,-17.39703311211228
2023-12-07 12:18:41.700428,-36.92734717411802,3.840755841375804,-0.1988930563477464,-25.843528444808875
2023-12-07 12:18:41.700428,-9.182974205511764,-2.483334591815449,1.6975811862901715,-3.2331266894125106
2023-12-07 12:18:41.708881,38.35546053045019,-2.151822358520796,-0.7801372382582594,24.71577302662304
2023-12-07 12:18:41.725085,32.50914264710268,-1.07422733198671,-1.0491818492371294,20.19582056501476
2023-12-07 12:18:41.733481,-24.94346758902951,1.7510753454328205,0.2870330701890811,-16.735506213029534
2023-12-07 12:18:41.741518,-59.69123521369084,5.380221070853691,0.1150623450435801,-40.88305005301168
2023-12-07 12:18:41.749499,-26.46847986256456,1.3273872898205366,0.588571965329461,-17.13641476505534
2023-12-07 12:18:41.765685,31.764984662045062,-5.697794397050938,1.3723185235129354,24.3556758921437
2023-12-07 12:18:41.781871,30.083616129932505,-8.359329907612455,2.81943616691855,25.933109716440484
2023-12-07 12:18:41.789969,-5.96205627151746,-6.857695137236687,3.7942532419323634,3.000904246739759
2023-12-07 12:18:41.798477,-16.802617245155957,-4.546286460932476,3.1340387974570576,-5.689385064390777
2023-12-07 12:18:41.814938,-7.744002426712234,-5.323935798846838,3.0984361174753,0.4992210226088424
2023-12-07 12:18:41.814938,26.90978449085176,-5.8404179756419445,1.7000590261547426,21.78477681378981
2023-12-07 12:18:41.831248,52.06779134096595,-3.0433146802454445,-0.9427481872253148,34.16426460165836
2023-12-07 12:18:41.847696,18.01702320355349,-1.5577224361804454,-0.0690732849866193,12.31559624319298
2023-12-07 12:18:41.847696,-22.9439453779953,-1.6369221750401024,1.9421269256667777,-12.134012556738291
2023-12-07 12:18:41.864107,-11.875276457461148,-1.5887740628058828,1.3914056686978746,-5.491884629151813
2023-12-07 12:18:41.872250,25.00122018545604,-2.279855158371604,-0.0215677517458097,17.319660211158006
2023-12-07 12:18:41.912801,38.00884848767281,-1.017285950130567,-1.294285611590209,23.89339341763167
2023-12-07 12:18:41.912801,11.180034182938185,3.0350233017748414,-1.9901560142267705,3.862342271726032
2023-12-07 12:18:41.912801,-31.457754515460312,4.915322983640419,-1.0974843173105744,-24.046079534673684
2023-12-07 12:18:41.920879,-38.17606267213961,1.4203576811581442,0.7277267583590676,-24.84926752300864
2023-12-07 12:18:41.929054,2.66391244572568,-3.397550189771942,1.2109961330608674,4.728152599187494
2023-12-07 12:18:41.969744,31.865090060008274,-1.3730115953747253,-0.7665213856680743,20.96984655823242
2023-12-07 12:18:41.969744,4.407540049505276,4.984488870416722,-2.3657668747348115,-1.6286810880478222
2023-12-07 12:18:41.977887,-51.42506847472128,5.893128822360922,-0.4348650810470399,-36.64383292054853
2023-12-07 12:18:41.985921,-52.02756392454669,0.7606859610045448,1.81369682201108,-32.30304744318357
2023-12-07 12:18:41.998647,14.805701029037373,-4.0498439745844665,1.2602917151009252,13.182887137457667
2023-12-07 12:18:42.010295,41.58115146440076,-2.634036555722501,0.0360686530075258,29.073651733443075
2023-12-07 12:18:42.026569,12.438653381128288,2.94524690904597,-1.414227259121542,5.725112198083602
2023-12-07 12:18:42.026569,-21.042547671596747,5.033097787859547,-1.612904182108564,-17.842501839053906
2023-12-07 12:18:42.034884,-48.2550571291861,5.134939832928415,-0.1900431235962967,-33.868858443791254
2023-12-07 12:18:42.051126,-1.0710225018201878,5.177562508688259,-2.188723882204032,-4.976220854701931
2023-12-07 12:18:42.059359,66.41826225566699,4.302901651702498,-5.218967052053559,35.91079166873383
2023-12-07 12:18:42.067511,21.25168546178657,7.740389563346198,-4.519440341133855,5.595554210540409
2023-12-07 12:18:42.108429,-42.139879524936745,9.633021240787285,-2.397074719015376,-34.36321754920455
2023-12-07 12:18:42.108429,-33.69296036336106,4.107676613345481,-0.3882050429785657,-24.18653980400196
2023-12-07 12:18:42.108429,-10.799205582422372,0.2747983636018473,0.6130896396828417,-5.968354025509296
2023-12-07 12:18:42.116590,13.100479743853498,-1.9017666314893047,0.6154581989817898,10.85570357134912
2023-12-07 12:18:42.124667,28.340108513244203,-1.377112608135863,-0.5270136726434892,18.88625074906339
2023-12-07 12:18:42.141065,-3.4099874163034345,4.401818704300021,-1.6745835164891656,-6.077993571508574
2023-12-07 12:18:42.157292,-39.47714845776259,2.465018050953556,1.2694713265134745,-25.019090996855383
2023-12-07 12:18:42.165472,-6.480260805712328,-4.134933010287363,3.3966572924850658,2.6317589332298112
2023-12-07 12:18:42.173685,45.13058703415553,-3.383658308989457,1.089050079193369,33.55027157604864
2023-12-07 12:18:42.214301,38.62277387576944,0.1036985012173714,-0.4977268792860731,25.413537670456016
2023-12-07 12:18:42.214301,1.067556583572542,2.8700121635300406,-0.5833805054171533,-1.0469393242749303
2023-12-07 12:18:42.214301,-33.73029713549782,0.9628167489297492,2.040543369354449,-19.471592236898232
2023-12-07 12:18:42.255507,-22.50194642654455,-4.612911743336167,4.603590164562206,-5.75107894852245
2023-12-07 12:18:42.255507,44.0224848280708,-4.073015367356598,1.6538668471895257,33.98855595102706
2023-12-07 12:18:42.255507,67.50534099768713,-0.441277015178102,-0.8825667845698113,44.19980135038088
2023-12-07 12:18:42.263702,22.03444207613897,0.6381845998292903,0.4070675612617611,15.223981787941073
2023-12-07 12:18:42.279888,-17.375486120440353,-1.3435995729620025,2.7857246135827896,-6.5143131123921
2023-12-07 12:18:42.288010,-5.568340258684117,-5.341054573798481,4.112186566220256,5.288925182528853
2023-12-07 12:18:42.299042,33.75830132806543,-6.40502893327801,2.79128492412841,30.035771123154262
2023-12-07 12:18:42.304058,28.87428365464899,-6.249438002034545,3.1552197087154905,27.3473927203658
2023-12-07 12:18:42.320223,-21.6912520583373,-5.525783190960524,5.396405917470139,-3.0310856611975576
2023-12-07 12:18:42.336583,-56.1960840724148,-2.8418079047730607,5.759470023061413,-26.341405290571373
2023-12-07 12:18:42.352853,-40.62232093168916,-4.394217314347688,5.839461342220155,-14.92674071155754
2023-12-07 12:18:42.352853,18.847853548845706,-7.767809370377037,4.876244001063217,24.538681036225583
2023-12-07 12:18:42.393582,49.22414137804328,-5.71628375860035,2.302390115528169,39.40850782608326
2023-12-07 12:18:42.393582,14.34897954069598,-1.742034353454283,0.5326100417789412,11.23972983461296
2023-12-07 12:18:42.393582,-27.207692964818264,-0.6861464851177984,1.018611647914953,-16.022492946601165
2023-12-07 12:18:42.401600,-26.312674379556707,-1.1515714296047506,2.5109311129493976,-12.186211693535476
2023-12-07 12:18:42.409825,25.05963187527005,-2.2888530282962347,1.554921791974303,20.99711884913338
2023-12-07 12:18:42.426298,54.61764192182547,-4.535045876623586,0.3210062447892733,39.05521203075422
2023-12-07 12:18:42.442721,9.87594167205851,-3.763551505048631,0.6649365991553008,9.299202916789246
2023-12-07 12:18:42.450791,-23.66644860675941,-1.3348992427380977,0.6065724058786165,-14.22885496573393
2023-12-07 12:18:42.459022,-5.22837176419776,-1.374153429157303,0.6569309459088786,-1.738098837354248
2023-12-07 12:18:42.475339,27.73798210232301,0.0258203651018081,-0.7939157855759336,17.310934969368553
2023-12-07 12:18:42.491562,52.443950259263545,0.8878065409259274,-1.953766786850812,31.111784635198333
2023-12-07 12:18:42.515357,24.052524499445223,-0.271197318750213,0.0375840595312837,16.038475320952852
2023-12-07 12:18:42.523489,-35.24527996445927,-0.1306001814349567,1.3444345668522584,-20.803543611912808
2023-12-07 12:18:42.523489,-39.40788048324697,-4.369264392116554,2.1953368210003625,-19.62259345286542
2023-12-07 12:18:42.548052,22.707365037073725,-7.52935045861151,0.2772092266286578,19.112639010102352
2023-12-07 12:18:42.556225,-13.125029718408769,-3.9457604985390007,-0.8721037471777531,-8.885389805414682
2023-12-07 12:18:42.564409,-17.231749742709468,-5.457734701872453,0.044832174415173,-8.800932488892679
2023-12-07 12:18:42.572523,2.8646980534037367,-9.048312119017307,3.322463598177863,13.49884857716979
2023-12-07 12:18:42.588607,43.62692478878086,-5.381252789303905,1.0539762221289068,33.91355019861492
2023-12-07 12:18:42.596799,48.41318268561616,-1.1494218082959626,-0.2775531008544779,31.362573187655123
2023-12-07 12:18:42.629134,-20.62524719579772,-0.6990620901403508,2.2170777306838167,-9.12535716194908
2023-12-07 12:18:42.645531,-42.556529778404204,-0.5804147709824269,0.281213494476077,-27.048911160024645
2023-12-07 12:18:42.678356,35.76128409068592,-2.330808520242036,-1.2122519194648664,21.95113957767205
2023-12-07 12:18:42.686531,50.38132570963076,-4.940680571780981,0.2073932847341781,35.918499209407926
2023-12-07 12:18:42.699519,14.49761965688011,-7.032284308872091,5.58112414671083,24.83075066465542
2023-12-07 12:18:42.711293,-16.129707011626312,1.7841913820181732,5.02113872036669,-1.2115840402722973
2023-12-07 12:18:42.719363,-9.748153003221276,7.14764110481587,-1.3753783070859102,-13.394579972244118
2023-12-07 12:18:42.744065,32.8364628593266,4.192846207212508,-1.6468993405063097,15.593208681599355
2023-12-07 12:18:42.752426,28.28193003419756,7.965254994954617,-1.0468987203104658,11.122236567954545
2023-12-07 12:18:42.793240,-45.69847364574928,6.379246473343937,-7.107680739888846,-48.7124543202296
2023-12-07 12:18:42.817556,17.00870631653924,5.086058815560577,-6.821895704624865,-6.761043409265465
2023-12-07 12:18:42.858742,20.170618266711823,5.735293633121736,-5.355208826422313,-2.413516289208547
2023-12-07 12:18:42.874895,-43.59790142144758,7.906425101175227,-6.555648989528321,-48.17212276756884
2023-12-07 12:18:42.874895,-29.50876262724613,1.3445462738621208,-5.90413483978577,-32.928349107336786
2023-12-07 12:18:42.883159,23.306311196091304,0.1684813646775359,-5.690103560108864,2.438098763447813
2023-12-07 12:18:42.899841,31.4307331985458,1.685049103357218,-5.448565410707017,6.712460056428424
2023-12-07 12:18:42.908047,-22.067627686975342,4.988128101850686,-4.603170109884386,-28.5598345632409
2023-12-07 12:18:42.916079,-56.13785228354761,7.290765471996448,-3.0197608115606065,-48.73075301873409
2023-12-07 12:18:42.924342,-27.214776777938543,4.532002591529243,0.0248058452542696,-20.885824554348407
2023-12-07 12:18:42.940625,19.023464422511505,1.7467839311707785,2.14304921147288,16.1459592886935
2023-12-07 12:18:42.948737,37.750481677838565,4.732765897884645,0.2080383843933508,20.918437940222187
2023-12-07 12:18:42.981881,6.868884637044475,7.963651104668391,-1.171559668419644,-5.338847645764668
2023-12-07 12:18:43.022653,-43.167349786112354,7.973745377463729,1.071562064908423,-32.062982731599284
2023-12-07 12:18:43.022653,-24.25779383381428,5.867674769116542,1.2883702228364955,-17.585590176406985
2023-12-07 12:18:43.022653,45.44475756262644,0.7390270250795239,-1.0635592132061065,25.56950505169228
2023-12-07 12:18:43.038993,52.483865955110325,-1.9348538736204195,-2.758136155791854,28.365397605889218
2023-12-07 12:18:43.055969,1.4832762113131035,1.5419877259674422,-3.192145649022032,-8.410953952126658
2023-12-07 12:18:43.064373,-43.68220714214589,3.8787584316111134,-0.8098685467173851,-33.535409457741075
2023-12-07 12:18:43.088770,-47.70039828856723,0.7375978532037811,0.2717858438396122,-30.14397879494419
2023-12-07 12:18:43.099908,7.378542027354206,-3.706524066750046,-3.1564457557456818,0.572892204681082
2023-12-07 12:18:43.104915,40.52371345244691,-3.495810099155422,-4.391520038523164,18.09304358494689
2023-12-07 12:18:43.120965,-6.700915374891779,-0.6729665009083801,-3.228664506620885,-11.50984779459311
2023-12-07 12:18:43.137192,-60.29335042347389,-0.8166465428935797,-4.285747333970931,-47.77337117482732
2023-12-07 12:18:43.153767,-56.44354638928727,-1.0726493649437585,-3.421292027818825,-42.891371776414886
2023-12-07 12:18:43.186109,-6.679136280090459,-1.3501511940808095,0.2992583108749197,-1.820430145464781
2023-12-07 12:18:43.186109,27.59530429020454,-0.6525433830866257,1.2506306806426353,21.392913355579577
2023-12-07 12:18:43.186109,1.931918662638534,5.046971303233436,-0.3381144080146118,-4.685435629849871
2023-12-07 12:18:43.226648,-48.78322746744217,6.030304790856397,-0.8612168903981923,-38.896968192829846
2023-12-07 12:18:43.226648,-58.36238792307737,2.4583510827998887,-0.2509159744026775,-39.53113887283276
2023-12-07 12:18:43.234704,-11.0661411645213,2.931571862551828,0.3147332105483095,-8.853139136929908
2023-12-07 12:18:43.242706,28.51875489817365,-0.1001140440834162,-0.1198072101854496,17.86133732354978
2023-12-07 12:18:43.250707,0.4858200783689555,-1.470655214945432,-1.6270633192166024,-2.253165311134635
2023-12-07 12:18:43.267163,-64.13071708414381,4.803663353954183,-1.022534078088097,-47.6501174421279
2023-12-07 12:18:43.283406,-80.3521880847278,3.873738222133828,1.2324553614954097,-50.78639754197502
2023-12-07 12:18:43.291503,-19.82105285730274,-0.5326614705048905,0.341372424730642,-10.650594169800874
2023-12-07 12:18:43.316509,40.67017493824015,1.607168314804708,0.011015455069267,23.696840821815584
2023-12-07 12:18:43.324934,27.25786886713165,3.463978158246461,1.9728585427764136,18.27733805547188
2023-12-07 12:18:43.341379,-47.0982455737451,6.368994587017465,-1.5393682633472734,-40.26544250071887
2023-12-07 12:18:43.382634,-27.12860282476295,0.3894467924544916,-1.4883542271781471,-20.831366500210613
2023-12-07 12:18:43.400150,53.35026227514405,-5.076957900737611,2.6878948424292544,45.865541578242485
2023-12-07 12:18:43.407155,62.0744984005691,-2.7290282751480386,3.028792405567249,49.31745584574045
2023-12-07 12:18:43.415565,18.3849277618114,-3.22874991956236,1.9476261807924125,19.769410773201447
2023-12-07 12:18:43.431879,-31.81445680600911,-8.204430937322922,1.7103485372447738,-6.222720839349024
2023-12-07 12:18:43.456571,59.473594131225774,-8.569476628744003,0.674516027361101,48.1732718430202
2023-12-07 12:18:43.472783,7.133221826038713,-1.879043707302892,3.474099860024389,15.56156098584542
2023-12-07 12:18:43.514289,-12.580280285003887,-0.741229754457442,5.066945869508443,6.3210680993673
2023-12-07 12:18:43.514289,3.1911855503551108,-6.440566297371648,3.948697960231144,19.75412217478528
2023-12-07 12:18:43.522396,42.84056945160434,-10.202909857729829,2.0368859516107016,43.62257185898635
2023-12-07 12:18:43.522396,62.946165541890025,-7.846327420955636,0.3383846678657923,48.75963501326787
2023-12-07 12:18:43.547193,27.533042970527035,-0.5450595195875472,3.435435748285991,26.923663898110306
2023-12-07 12:18:43.604074,-22.19752021576032,1.1026421025292263,4.249920270090828,-3.272742085554265
2023-12-07 12:18:43.604074,2.6859628756030203,-7.001836870089481,0.5657083888534443,12.846398577040336
2023-12-07 12:18:43.620243,-3.652044104637414,-2.6115334713287126,-1.372084849890585,-2.420408279400984
2023-12-07 12:18:43.628500,-45.120061325497616,-1.02352737911579,-2.179384922656148,-32.07428370798035
2023-12-07 12:18:43.636687,-52.77871780835715,-4.264425482775598,-1.3148695514338224,-29.68803842046052
2023-12-07 12:18:43.685439,11.86148011725382,-5.197753617683587,-1.1159469138866165,11.450605035752217
2023-12-07 12:18:43.685439,56.16592258008853,-1.587319026898503,1.7640722452942084,41.22465822869974
2023-12-07 12:18:43.685439,7.2028097457762605,1.7753191225147014,3.5149662464393274,11.62774384201542
2023-12-07 12:18:43.693872,-27.56700908558972,3.3492438403372287,2.5827080637441613,-14.315774718700087
2023-12-07 12:18:43.710001,-18.260761616219423,1.278663803190866,2.73435040431949,-5.303353788620592
2023-12-07 12:18:43.718303,20.45768432048823,-0.1271689663277076,3.85874168869925,23.34117133479696
2023-12-07 12:18:43.742731,32.00105912200216,1.8996876223847567,6.9825368201401465,35.99887456259346
2023-12-07 12:18:43.759139,-42.06070170542539,4.611732689697965,5.426436436346615,-17.038573805740764
2023-12-07 12:18:43.767591,-36.06111243202276,3.6867393613641455,2.2913092282559275,-20.78478424957157
2023-12-07 12:18:43.775704,22.62540922908288,1.1427364674675864,3.574081390428517,21.9830281190834
2023-12-07 12:18:43.783814,44.5731473699042,1.7719976792803076,3.890249916823057,35.288978723454015
2023-12-07 12:18:43.832755,18.144844763856025,1.948522326890951,0.9096362648576968,10.691475293125723
2023-12-07 12:18:43.832755,-20.795937130926305,4.512568269366242,1.1951616449355218,-15.98558542209103
2023-12-07 12:18:43.832755,-38.70016959933543,4.690774434424404,1.5318381109584034,-26.052904880593733
2023-12-07 12:18:43.841098,4.758396581000398,-1.1295942894646591,-0.6115002250036345,3.036605698639606
2023-12-07 12:18:43.857452,68.60914503801882,-0.1021567874833945,-0.1739649615283839,41.16635166247054
2023-12-07 12:18:43.873660,52.526493649709366,5.817897163150123,1.9508815490670448,28.259614179674244
2023-12-07 12:18:43.881849,-22.25055208525493,6.358405941441927,3.1048691138806697,-14.542940421481308
2023-12-07 12:18:43.922257,-51.46734978907455,3.964867568789327,2.814701071786722,-29.24773728224443
2023-12-07 12:18:43.922257,-1.083236302519822,1.1227567513793126,1.4732288150251285,1.824471148540656
2023-12-07 12:18:43.922257,50.27728243955214,0.1531194901057208,1.8726230574037104,35.33627417419009
2023-12-07 12:18:43.930713,36.01516757340261,5.006384052043223,3.963976968009887,24.816990710196865
2023-12-07 12:18:43.979462,-32.916497261525265,6.391388060243238,0.3609410723313017,-28.95672321069388
2023-12-07 12:18:43.979462,-13.383544556221006,-1.453136378601518,-2.202070648786533,-11.578570217246185
2023-12-07 12:18:43.987572,49.22123325153512,-0.6161897475024793,1.4039873540868724,34.52877706448551
2023-12-07 12:18:43.987572,55.782145224025975,0.8408340283349707,2.972119790124624,40.24961205931588
2023-12-07 12:18:44.003646,3.18654148060397,-1.7658803054992884,0.0462487414609139,4.820755834735416
2023-12-07 12:18:44.011712,-37.73968242658157,1.1393184451703935,1.6483616099076446,-20.01145298193577
2023-12-07 12:18:44.027914,-33.28834332078341,3.273768062331232,3.382042811300526,-15.821992672433492
2023-12-07 12:18:44.036177,18.74261986839917,0.3019747157590317,-1.0266467192527904,8.319191892351093
2023-12-07 12:18:44.044263,33.33339875798743,2.1660112958800672,-3.890781397320952,5.90366640400632
2023-12-07 12:18:44.052269,-18.696824104140315,6.510542153186422,-1.2352090123417774,-25.513963553620027
2023-12-07 12:18:44.060262,-51.97213644628351,5.705739958562992,1.1951577715639123,-37.498949698063406
2023-12-07 12:18:44.092851,-24.00520881988764,1.1147750926197928,-0.4712833018423418,-17.3057874809329
2023-12-07 12:18:44.116592,36.15847936864396,-0.9729286296546524,-1.0302420694998151,20.80777822116773
2023-12-07 12:18:44.116592,50.7432104405294,3.2751309820483123,2.9438661994554653,32.6307526437041
2023-12-07 12:18:44.124810,5.296495550590987,7.914387931698405,4.487488423493048,1.1474997018795094
2023-12-07 12:18:44.124810,-28.49118539846905,6.502706243369204,1.4741019915121,-24.788760049482075
2023-12-07 12:18:44.132879,-16.732098096168905,0.907410969217607,-0.916128961266125,-13.93320925736335
2023-12-07 12:18:44.141143,30.070730448119942,-2.7930311573957525,-0.2750588033262774,22.607594983423056
2023-12-07 12:18:44.157423,46.47952582041358,-1.2121360432861636,1.681281368892871,34.61669216212994
2023-12-07 12:18:44.181940,-3.508013566380574,1.8372188699843128,0.242439488844414,-4.787045786990075
2023-12-07 12:18:44.190018,-48.52102078237133,1.8598959542523024,-2.4101624056390354,-38.66520766984448
2023-12-07 12:18:44.230711,-45.7433337368365,-0.9781481540653728,-1.8830108552189928,-29.976876985717244
2023-12-07 12:18:44.230711,-4.783324192918735,-3.330624954861164,-2.3417703158069147,-2.1818143141788298
2023-12-07 12:18:44.239065,35.74877044959727,-1.9767285689726088,-2.9035593288823565,17.56341703535379
2023-12-07 12:18:44.239065,11.986806762627715,1.588850527848067,-0.5030294593854259,2.6390100739493363
2023-12-07 12:18:44.255255,-45.27312626657525,2.7145536958748115,-0.3771048339829337,-33.1002563599698
2023-12-07 12:18:44.263336,-39.56745102620233,-0.6776488084275525,-2.395627017297904,-28.1569043326771
2023-12-07 12:18:44.287858,24.14372037081701,-4.8488643494484895,-2.503957405692534,17.62596240092823
2023-12-07 12:18:44.287858,49.198197834072005,-5.7247794821128375,-2.052655087365339,35.47832472374981
2023-12-07 12:18:44.303993,2.8475313586472155,-2.847704909714256,-0.6168470911805508,6.156068563008097
2023-12-07 12:18:44.320260,-49.221696058454185,1.2735574798847633,0.9696899107084824,-28.877815988554737
2023-12-07 12:18:44.320260,-41.51425167135682,-0.184767401812843,-1.0091990494332523,-26.47713761707049
2023-12-07 12:18:44.336357,17.86020630299608,-4.955278528524411,-1.966203862932821,16.06718604471182
2023-12-07 12:18:44.352833,50.86559952201006,-4.106392578786204,0.4743004278497107,40.11458350347704
2023-12-07 12:18:44.369321,23.98557981945438,-0.414700391627787,0.480432348361423,16.30601138630878
2023-12-07 12:18:44.377573,-17.510345585443773,4.368177912286501,1.4990566825954397,-16.025565882250447
2023-12-07 12:18:44.417943,-32.75645485119624,7.629101124507914,4.698508292459732,-23.755684516787923
2023-12-07 12:18:44.417943,4.409367964504111,3.337356300643717,3.330221579937699,4.050304689569957
2023-12-07 12:18:44.417943,57.081104678370366,0.862826107443902,2.0412226278971795,36.8130283696762
2023-12-07 12:18:44.426139,50.62704185058988,1.5405624600446006,1.4152132016710488,29.553932559607144
2023-12-07 12:18:44.434448,-2.4901992975237723,-0.5535398836232953,-1.5821346620601773,-4.525400228865108
2023-12-07 12:18:44.442510,-36.12203536817656,-0.6800431897693926,-1.829840220771383,-24.12432839941813
2023-12-07 12:18:44.450687,-3.711571576211584,-4.519968148167375,-3.5810043970964034,-0.4656057250920483
2023-12-07 12:18:44.458743,55.37209002521436,-4.911859998185027,-2.372118769130196,37.74760945844933
2023-12-07 12:18:44.466871,47.17937398493552,5.387474854090274,5.777875461926665,29.190844073586348
2023-12-07 12:18:44.482890,-16.235472622044707,4.233115017285404,3.184930187017997,-11.506084041809691
2023-12-07 12:18:44.490952,-48.42432151808005,1.0643495259632514,-0.6273192308693113,-32.200014184675176
2023-12-07 12:18:44.547921,-15.629914638191607,7.507864929740672,5.204213118753718,-14.062568506927636
2023-12-07 12:18:44.564343,37.05417453631226,-1.2640895938101242,-0.5590569459705802,23.18269786432658
2023-12-07 12:18:44.572461,43.84372979556353,-8.91876201424482,-7.243774559917928,28.865550304845097
2023-12-07 12:18:44.572461,-7.043666367586157,3.5374324078125547,-0.0359166721086574,-13.4075293183072
2023-12-07 12:18:44.580773,-46.1046530018542,-2.9454064915938325,-4.978935045359874,-31.756480080907306
2023-12-07 12:18:44.589028,26.20018856915888,0.0188960208350192,-0.6757218311398994,12.749380290812509
2023-12-07 12:18:44.613403,21.20931178627394,2.4298977228928766,-0.5895242190572277,3.8952080880395874
2023-12-07 12:18:44.629585,-46.65791996909809,-3.71048825502082,-7.370040757917346,-36.1857377332792
2023-12-07 12:18:44.662244,-10.381296823617191,-6.291126229739796,-7.978261498976172,-9.928158327439814
2023-12-07 12:18:44.670301,14.348769325975525,-5.508523590595806,-6.229226179052758,6.189804929405561
2023-12-07 12:18:44.710605,-36.95480640278013,2.657813523068484,-0.8368499564319843,-31.71060684746601
2023-12-07 12:18:44.710605,-57.49002128431416,2.662396875951794,-1.1781017122826718,-44.55855351697439
2023-12-07 12:18:44.710605,-24.779579093418047,-3.522514417625384,-4.00974044027495,-16.140564856659083
2023-12-07 12:18:44.719053,17.32915777566236,-2.398258148496697,-1.5999945205990862,11.116748725887616
2023-12-07 12:18:44.727149,40.81242765285931,2.492959066350104,2.6046030997427128,21.43580677962036
2023-12-07 12:18:44.743503,15.407407755738827,5.078167902416053,4.588335716760982,4.423366973222719
2023-12-07 12:18:44.776052,-36.751673898885805,6.10239020793884,4.310410606814333,-28.650744406383705
2023-12-07 12:18:44.776052,-50.747247224423134,4.189444935465096,2.7747021119294737,-34.68076719790627
2023-12-07 12:18:44.784199,-0.0380149213159845,0.2997604474820725,1.2414897875955682,1.438595419647314
2023-12-07 12:18:44.792255,43.236450325605794,0.7606930680433733,2.0645906144597306,26.76459202818928
2023-12-07 12:18:44.800969,12.796902962050645,5.1651399093749335,5.089595178593965,4.316764494845707
2023-12-07 12:18:44.816576,-29.05509120004272,4.999787930499929,4.448851656621136,-20.55628753895536
2023-12-07 12:18:44.857732,-20.19025838093697,-0.0282213073025921,0.4085032294916966,-10.78082515373698
2023-12-07 12:18:44.874208,27.497890737164955,-2.649124191919128,-0.452711822196254,21.79874068222217
2023-12-07 12:18:44.882318,63.42159044872212,-0.5894310119098543,2.0115436965623834,42.150496004572936
2023-12-07 12:18:44.882318,34.9218108562647,0.9261941814753928,2.0291281844382114,21.766049054846384
2023-12-07 12:18:44.898653,-12.952021405048267,-2.3270307179384133,-2.2840676252623124,-6.124031448074908
2023-12-07 12:18:44.906699,-15.422499961982744,-4.610691061080988,-4.396382535776752,-5.787794564161844
2023-12-07 12:18:44.914738,13.276684501249518,-3.704757673579876,-2.671827468073693,12.113335860965492
2023-12-07 12:18:44.931110,42.58165170496289,-5.315143121540846,-3.3608711847107564,31.83507245280091
2023-12-07 12:18:44.939214,34.79036676009316,-6.71488273814346,-5.270699970430055,27.001318467148856
2023-12-07 12:18:44.955598,-19.96787378577492,-4.9438629825890335,-5.263577866309436,-9.023076590525353
2023-12-07 12:18:44.963680,-52.99140487461636,-5.6998915229609874,-6.627390359819082,-28.44587051043981
2023-12-07 12:18:44.979908,-0.47035486610253,-9.378431361405186,-8.839678295489277,6.944323910307738
2023-12-07 12:18:44.988203,68.89283341069365,-9.820201233550442,-7.798745051045184,49.75143069640162
2023-12-07 12:18:45.004556,43.881135780839,-6.771380818932855,-5.504702002590601,32.03632723732347
2023-12-07 12:18:45.012713,-21.88852399610125,-4.483317962524063,-4.893595353775017,-10.279723072135706
2023-12-07 12:18:45.037514,-34.700749588258375,-3.6989708704816464,-4.505788979035599,-18.89393562157741
2023-12-07 12:18:45.053798,0.066285859212724,-4.822785094163157,-4.655399168691445,3.7534094445937214
2023-12-07 12:18:45.069791,57.559922271151855,-6.910370400562431,-5.196058268062076,41.1028553343852
2023-12-07 12:18:45.077864,63.09647994480948,-5.170949572246198,-3.5270555379766506,42.85320101176171
2023-12-07 12:18:45.085853,-12.176334156131896,-0.5772115643444764,-1.0827948218198749,-7.465123526200709
2023-12-07 12:18:45.109465,-58.30005642475396,0.7777696766066914,-0.8535500215572185,-36.79999952576055
2023-12-07 12:18:45.125728,-21.249785596575112,-1.7769119461396274,-2.282787890622058,-11.58931317224216
2023-12-07 12:18:45.142266,32.77514905212713,-2.585250184710901,-1.6472230340877525,22.68827343435788
2023-12-07 12:18:45.150405,31.77822591271329,1.020034367897814,1.793010498463102,19.266515251397543
2023-12-07 12:18:45.191464,-15.59060011486757,4.023908685885893,2.692450745798652,-11.288607103171849
2023-12-07 12:18:45.201578,-52.76551392404427,3.6610473952032647,1.6207575718944496,-33.75735308482512
2023-12-07 12:18:45.201578,-45.00410565090933,2.188281072754936,0.2768164084382893,-26.212210631130528
2023-12-07 12:18:45.240303,4.311482188253565,-2.085397958142001,-3.311438343574632,8.298728245201046
2023-12-07 12:18:45.240303,50.99144987567603,-4.750579956444621,-4.9859436586606405,37.557490762521965
2023-12-07 12:18:45.248520,22.40397935467653,-1.2590955469849026,-1.693368758439068,15.646764714233068
2023-12-07 12:18:45.248520,-50.47350984514937,1.792562136802758,-0.1145329986192604,-30.70392854209821
2023-12-07 12:18:45.264756,-43.28729389425092,-0.6808090345308876,-2.486466622092053,-23.096991535344497
2023-12-07 12:18:45.273147,38.91899335567754,-4.354165813808217,-4.247804295004032,30.1681160843156
2023-12-07 12:18:45.290461,59.46969154318593,-3.131262591060573,-2.459367998195386,41.41804906333429
2023-12-07 12:18:45.314719,5.039248179104121,0.4192220789386973,-0.1032934037352526,4.487352044050705
2023-12-07 12:18:45.322719,-42.29206923839064,1.0741643051894358,-0.6937638855846617,-25.348922590035336
2023-12-07 12:18:45.371734,-41.09596376601896,2.0801040231603407,0.2683675109974742,-24.20777922233441
2023-12-07 12:18:45.371734,17.060037067892193,4.54572209273574,4.057667397300556,10.060814800474317
2023-12-07 12:18:45.379815,40.69657805822432,5.850252926017168,5.334120943095048,23.071821339558607
2023-12-07 12:18:45.387957,-18.611326417141484,7.162494670948369,5.064287243719018,-14.75974468756298
2023-12-07 12:18:45.396371,-58.36116740794154,7.191123620568742,4.8561684328228765,-39.91823595560098
2023-12-07 12:18:45.404390,-40.04670539894942,3.6825830458863966,2.0163355608753624,-25.362704023407566
2023-12-07 12:18:45.428637,17.571502034690166,-0.3395712701748579,-0.5682123869538293,14.22339347833691
2023-12-07 12:18:45.444632,70.11111273377375,0.2940065715829039,1.6287420022124672,44.83110737115464
2023-12-07 12:18:45.468962,24.26846483855297,5.035511997845228,4.667340192495187,12.052981039720148
2023-12-07 12:18:45.477252,-64.05562493237078,7.360968544068847,4.244722512988421,-43.003527322949125
2023-12-07 12:18:45.485272,-62.3273130750861,4.949605993391278,2.3611426979827783,-38.99818581438143
2023-12-07 12:18:45.518138,6.123185910801747,1.2820485517208509,0.9940417154456777,6.323776694658119
2023-12-07 12:18:45.558572,43.728980466407926,0.2675497644296406,1.197092693754202,29.763864220386413
2023-12-07 12:18:45.558572,22.808196671450183,2.555384597261485,3.1436054746591733,13.382948964757452
2023-12-07 12:18:45.566671,-21.23240177099925,4.873123329040306,4.640644693723586,-16.88831500546279
2023-12-07 12:18:45.566671,-45.30619452966084,4.232324156050237,3.404876117865664,-29.05340310322105
2023-12-07 12:18:45.582888,-16.529815023003547,0.8189764764256676,0.3898213255093762,-5.32578274780841
2023-12-07 12:18:45.631552,33.11496643108751,-0.6108193804378734,0.4168917400002312,25.93502814927076
2023-12-07 12:18:45.631552,21.26854284079328,1.581086539924233,2.4924883467358723,14.87842005481252
2023-12-07 12:18:45.631552,-30.990134312691893,2.068975272941844,1.7853046872610878,-18.810994517199447
2023-12-07 12:18:45.631552,-32.971374601837105,-0.0978757823112971,-0.0962081458047549,-18.555782026754187
2023-12-07 12:18:45.648167,20.979603988123543,-2.3312943492435045,-1.9061449322010284,18.09558159872801
2023-12-07 12:18:45.664479,63.325951932863376,-2.8030138562207227,-2.353510892273349,45.10863641435331
2023-12-07 12:18:45.680682,43.434120884513085,-0.4122498000534694,0.1627027540536833,29.13462795019775
2023-12-07 12:18:45.721283,-16.85152618691006,2.935809976363786,2.7260669313635444,-10.945446289383646
2023-12-07 12:18:45.721283,-44.11361155470895,5.863491670723341,4.428744062950734,-29.245232984773267
2023-12-07 12:18:45.721283,-0.1544629257682336,4.3395712413866265,2.847212455078106,-0.9024305586211876
2023-12-07 12:18:45.729513,54.4446790292064,0.2977014948058883,-0.0402913659241547,36.65702619675672
2023-12-07 12:18:45.745973,39.54191272349461,3.800980930715792,3.4067672508938003,24.92172091920688
2023-12-07 12:18:45.762200,-21.71100469784238,6.8715044261043445,4.625995372850203,-16.762737153518515
2023-12-07 12:18:45.770329,-50.09667742357566,2.4133367312554683,-0.4255958714480308,-31.243080226893632
2023-12-07 12:18:45.778351,-7.620916004523655,1.7227894150401144,0.2838553121954962,-3.76500799318483
2023-12-07 12:18:45.786496,57.2612527304045,1.999899717248917,1.5409193878556744,35.60775774232836
2023-12-07 12:18:45.802697,60.43113539762872,-1.2263533346803417,-2.369663958531537,37.64880097607616
2023-12-07 12:18:45.818844,9.375693555658716,-0.4591490643592692,-1.9889609490267457,2.071542937027615
2023-12-07 12:18:45.843531,-35.89744037641737,-0.0106181599922469,0.6129824475706901,-25.67818831782987
2023-12-07 12:18:45.851677,-31.58341711204181,-2.934576528393446,0.4254412401110589,-14.884426490926032
2023-12-07 12:18:45.859838,32.57307650923801,-4.738626250148596,-0.246731776966576,27.44147996146484
2023-12-07 12:18:45.876148,66.88984423188761,-5.746086093326059,-0.6222140186655971,42.80400424810326
2023-12-07 12:18:45.902610,15.177395593216982,-4.06961886297125,0.1282096810684685,5.627496715450233
2023-12-07 12:18:45.902610,-34.25455989555367,-2.561612379033392,-0.8117666099790329,-23.810223259624376
2023-12-07 12:18:45.908618,-10.237106304216718,-6.455397834635326,-2.741768974945868,-3.663537340269963
2023-12-07 12:18:45.916842,55.255507162502006,-8.915295871952921,-1.1466526616958987,38.35500394865012
2023-12-07 12:18:45.974235,72.19714408365307,-5.097480052730118,1.153054687798956,44.690737990672176
2023-12-07 12:18:45.974235,7.643249830898432,0.1798513424225841,4.532939344443013,2.1203298430001403
2023-12-07 12:18:45.982604,-43.96884393156917,1.8543441162188408,6.951303201642132,-30.49081624806927
2023-12-07 12:18:45.982604,-18.43094178177573,-1.2563864763892574,2.548195824244613,-15.106049439698255
2023-12-07 12:18:45.990653,33.251952269143665,-3.5056160932315352,-0.2383790682593182,20.998944541678146
2023-12-07 12:18:46.039035,43.92110866636828,-1.1204480700173345,3.113750496897693,29.92255740266956
2023-12-07 12:18:46.039035,-0.3054320061828796,0.5673969955624535,4.732650038755025,-2.994593125456438
2023-12-07 12:18:46.047143,-47.38033417786868,-0.2654412745371913,3.296070313236468,-35.89391876979485
2023-12-07 12:18:46.055248,-42.59292469449905,-0.7859814081153201,1.9194150667210823,-29.46385542992994
2023-12-07 12:18:46.055248,8.22818264413388,-1.8417073951059333,2.947836537018057,8.474174262132244
2023-12-07 12:18:46.063377,45.55507798942082,-2.6165810270819168,5.350362589715688,32.146034922604976
2023-12-07 12:18:46.087659,12.517403946201563,-1.158712938160655,5.7489495251532645,2.395191437865191
2023-12-07 12:18:46.103870,-57.23467374379297,0.95508953634452,4.797762999981892,-44.0325988927402
2023-12-07 12:18:46.111894,-67.34619772626539,0.9113263442437378,2.08303793287934,-41.270636228943616
2023-12-07 12:18:46.119886,-4.926610879025962,-2.301897663147622,-1.6904764287906158,2.6946048015036737
2023-12-07 12:18:46.136072,31.98841433499704,-4.016374460455953,-1.5131622524288098,26.51216247529608
2023-12-07 12:18:46.144450,-4.675306588626181,-2.7753011037227155,0.7706946887674287,2.167485445499884
2023-12-07 12:18:46.203066,-49.80840813869681,-3.1497119109544505,-0.3650061089473606,-36.12701096063771
2023-12-07 12:18:46.203066,-48.17934785915911,-2.598412649629899,-2.065613434850098,-37.86205546525578
2023-12-07 12:18:46.203066,1.8045606578687023,-2.417628836350396,-1.4703152418393548,3.3085661790112564
2023-12-07 12:18:46.209571,48.490509661518985,-6.546184084058832,-1.0365806044718484,34.26592292550091
2023-12-07 12:18:46.217898,25.909034968900663,-4.078719311957036,1.0029303560144214,11.262140513016014
2023-12-07 12:18:46.234177,-33.20507961963415,2.8999851288244782,2.780752262063172,-33.70404273461223
2023-12-07 12:18:46.242299,-53.97893797530288,0.1327646878731746,-0.4096567103496891,-42.60467083790847
2023-12-07 12:18:46.266963,-13.171143768343304,-3.557817549654759,-1.5370650952039386,-2.947874430203262
2023-12-07 12:18:46.283198,47.09943129989512,-2.172335438760313,1.0121048045974712,33.7060735370571
2023-12-07 12:18:46.323577,38.41720820734509,-2.09725078710066,1.1671890306929578,12.735556286997555
2023-12-07 12:18:46.323577,-29.69802718490863,1.5757183303327431,2.533292684543426,-31.88413293885337
2023-12-07 12:18:46.323577,-59.22185509591509,5.422893467753407,2.938773358697256,-39.996393784596286
2023-12-07 12:18:46.364150,-21.088368453684765,2.381901658031327,-1.6919807911625937,-10.5549038293214
2023-12-07 12:18:46.364150,33.69143008944219,0.7117225544699173,-2.3661487554835445,22.867702155062634
2023-12-07 12:18:46.364150,25.42169702172153,1.0904132286562933,-0.35522409473951,13.2698977836137
2023-12-07 12:18:46.380285,-38.269694310363086,0.3803189258774337,-2.1604090369284776,-32.21733668116665
2023-12-07 12:18:46.388383,-58.76119397305109,3.134206714411516,-1.756433934941021,-46.38760210597358
2023-12-07 12:18:46.402914,-15.503054550922949,3.3944217483565127,-0.6916464759472107,-10.665888383525251
2023-12-07 12:18:46.404419,36.03008471452543,-2.725506877646026,-2.2598927212745115,33.937256668861146
2023-12-07 12:18:46.412469,39.122966691863176,-4.959649432256819,-1.784713971892665,30.84020322222378
2023-12-07 12:18:46.428797,-17.097596831844818,-2.1144147724048694,-1.6074861229829305,-23.58589638972385
2023-12-07 12:18:46.461096,-32.74118722801073,2.149095611691644,0.8479843104513647,-23.019110668817262
2023-12-07 12:18:46.469213,28.61462117874916,-1.832456704564742,0.9183135650018877,18.104578132758967
2023-12-07 12:18:46.526339,41.4818933773992,-3.908198601561814,1.5928796220943473,15.874635772497628
2023-12-07 12:18:46.526339,-16.176286128905392,-0.0855095688963333,4.452152099145766,-27.496917049767447
2023-12-07 12:18:46.526339,-66.64308392048272,-2.675826873087372,3.785871210297998,-50.291025716383125
2023-12-07 12:18:46.534786,-45.97403513020662,-8.864461046740512,-0.0554830624872147,-25.540239004031328
2023-12-07 12:18:46.542874,21.345897434055384,-7.345958119696366,-2.612379279977752,9.498196832229103
2023-12-07 12:18:46.551026,49.00473919284192,-1.3707009995519537,-1.3944776007723736,14.17763065158481
2023-12-07 12:18:46.559120,-1.579968045748758,1.618597135180216,2.41123783627749,-19.970121367582266
2023-12-07 12:18:46.602986,-47.02117555937744,-3.390951887733009,0.1266056048989885,-36.87243062207735
2023-12-07 12:18:46.616021,16.095061463585374,-2.254279178130944,-2.464807341115559,10.480658334640111
2023-12-07 12:18:46.616021,45.48584822939517,-5.432700182962434,-2.2102974026076234,28.37547055588378
2023-12-07 12:18:46.673687,-11.9675142120299,-8.142555702474354,-2.47527071852754,-11.118076137431151
2023-12-07 12:18:46.697989,-68.0073470319763,-4.415918960622753,-2.972999077184189,-48.33893097879252
2023-12-07 12:18:46.697989,-46.90651272522682,-1.0358691151858754,-1.1277890678238185,-27.94033001437626
2023-12-07 12:18:46.697989,14.10061264374623,-2.3022358038395634,-0.2248985295356302,19.85200932133977
2023-12-07 12:18:46.703017,45.95308129117701,-5.374379808094099,-2.014103316837067,31.66172057111001
2023-12-07 12:18:46.738668,8.823331286667099,-7.186462458546069,-1.321659200278961,-9.452800130316522
2023-12-07 12:18:46.746850,-48.8531684130654,-5.746145959411407,-1.4424847080240084,-48.90421949907218
2023-12-07 12:18:46.754975,-52.17555767356726,-3.216098913545998,-5.616936916892208,-38.823518523879
2023-12-07 12:18:46.754975,6.6317949868478,-6.536291021931904,-0.435174473020065,9.657545346696145
2023-12-07 12:18:46.763119,58.95656902210712,-8.002478825811245,8.587433853999343,44.98938986365074
2023-12-07 12:18:46.779285,20.238735462769167,2.9903462499653712,1.5744737190819444,8.535947644304258
2023-12-07 12:18:46.811029,-66.03698165608019,9.152479418559189,-1.751372622626542,-47.49103584938337
2023-12-07 12:18:46.819138,-6.247151520573765,9.069937620022827,-6.700820396937594,-3.026239436971322
2023-12-07 12:18:47.039179,41.70289964644464,7.538706658744138,1.806682612259766,38.96951257354315
2023-12-07 12:18:47.055389,43.69018262653475,9.310313345952585,2.369213979160146,31.802853011129013
2023-12-07 12:18:47.063591,-16.82535407920429,9.64743935150829,0.3950744193014186,-13.388827309410717
2023-12-07 12:18:47.079721,-56.205502030204336,7.291577235480105,-1.757491294718314,-32.19503318229154
2023-12-07 12:18:47.103431,-21.92183764697928,8.374658437492124,-1.7872111821432808,3.184123987705654
2023-12-07 12:18:47.111664,39.80853033185876,6.333793239860765,-0.2782964795270264,43.891281735646736
2023-12-07 12:18:47.119832,42.32840763679043,0.9338154339083672,-0.3442881910061833,28.31719311942228
2023-12-07 12:18:47.127861,-16.30268417278034,0.9822427894757336,0.2899047617586108,-18.15467148189937
2023-12-07 12:18:47.184925,-55.04001843963202,1.831156599413804,3.5187598785907515,-34.8893402433801
2023-12-07 12:18:47.184925,-36.27546280916464,-0.6840427876730384,1.3080768295667118,-13.57699355591267
2023-12-07 12:18:47.193074,16.982886973041843,-2.042952589260095,-4.886800362818053,22.55185333124012
2023-12-07 12:18:47.193074,41.13548748201988,-2.4527781149519834,-6.286541362580064,29.018002763942835
2023-12-07 12:18:47.209143,-4.387591465555572,0.0696830247288221,-4.959595010321991,-10.650574604753457
2023-12-07 12:18:47.233542,-53.192876605495584,4.972533504232821,-3.322219559012899,-45.20156529063723
2023-12-07 12:18:47.249546,-36.76566959058086,4.569128761169164,-4.457327814153615,-35.21464909681547
2023-12-07 12:18:47.257535,15.718546521223931,0.0039328405623796,-6.511169988692766,5.516198872637398
2023-12-07 12:18:47.273795,37.03179579793974,-1.5572023245537367,0.4619342256248788,25.88228936895502
2023-12-07 12:18:47.281984,-0.59977650093949,3.057111645245316,6.923201692293011,-4.990211280807558
2023-12-07 12:18:47.303740,-55.08156530084801,6.601950165811899,3.273068645026779,-38.99659314552361
2023-12-07 12:18:47.306245,-57.788275185483656,1.7669992222903448,0.123723117866765,-28.706755824306285
2023-12-07 12:18:47.355104,1.3678062400613105,-1.1426615776025153,-1.4141494255869858,6.702938268053664
2023-12-07 12:18:47.355104,40.50942171037417,1.664080828826639,-2.958054999218214,21.413227633140185
2023-12-07 12:18:47.363270,-0.3522125402270944,1.9317332437370136,-1.7987999289189005,-8.273662480496016
2023-12-07 12:18:47.395956,-55.25209859586366,1.1091109810862498,-2.402052897053914,-42.32132699922012
2023-12-07 12:18:47.395956,-51.84758141854716,-1.9440443945520551,-2.7057389651917725,-31.37306562735748
2023-12-07 12:18:47.403975,-0.0813791177304703,-5.6920413842899285,-1.459689870759476,7.703546970012962
2023-12-07 12:18:47.403975,46.20729917353336,-3.400998175831115,-1.5801592551300332,30.43832606107852
2023-12-07 12:18:47.412099,24.3987375222094,-1.8330021601215285,-2.28232071280046,11.356196164034282
2023-12-07 12:18:47.420510,-33.51569497886667,0.1735023866993776,-7.126190265521298,-23.56121054372036
2023-12-07 12:18:47.428638,-35.00972515195053,5.415670187639849,-8.292431682782203,-18.26291605873151
2023-12-07 12:18:47.469252,12.169792678607292,-0.989076207755196,0.6707558505582558,19.409016367984886
2023-12-07 12:18:47.543445,10.515352341538328,-10.14653449585565,3.4873496467718144,9.951766694018676
2023-12-07 12:18:47.543445,-39.23559325003601,-4.592688889508862,6.870108402668115,-29.27700205908455
2023-12-07 12:18:47.673033,-44.96780791008225,-7.64356556725831,10.277686896900882,-21.082595565952307
2023-12-07 12:18:47.689222,-18.266418320727816,-8.524869416002874,9.601711402291546,1.7140105429708172
2023-12-07 12:18:47.713427,36.57801110920009,-9.645230075117126,6.547863211818777,21.947017086005683
2023-12-07 12:18:47.762594,-1.4349792025140722,-5.299073861792125,6.197598880953158,-6.159294523000692
2023-12-07 12:18:47.786578,-40.58023299734596,-4.772109259122439,4.223401045465473,-20.65958789754181
2023-12-07 12:18:47.786578,-24.0120952664132,-8.07727608748999,3.6439166718925065,-3.9260557618094105
2023-12-07 12:18:47.794830,33.71050782758251,-9.552042364239377,3.89860129255694,14.735304559441046
2023-12-07 12:18:47.804503,-4.427649233764557,-6.158332618594257,6.027347736156475,-9.160016609944796
2023-12-07 12:18:47.819138,-33.6488040671213,-3.450203739348626,7.274739870920715,-17.650940193663764
2023-12-07 12:18:47.843887,-21.060340231359284,-3.949686616339642,6.020817532175437,-4.903896443719389
2023-12-07 12:18:47.892913,19.102865499864723,-6.7945290378173,5.478202382228667,16.185459046636947
2023-12-07 12:18:47.892913,38.071348077412296,-6.164661248259702,5.291816569494868,18.18490391177691
2023-12-07 12:18:47.892913,10.287953454201316,-2.5132251032552992,5.619066281213964,-3.3097669150363624
2023-12-07 12:18:47.904563,-27.01151048231376,-1.0727341122951874,5.8245502622845295,-15.100541356072736
2023-12-07 12:18:47.917160,-23.26559310286913,-0.8566287267372884,4.498288330105745,-5.740493779373033
2023-12-07 12:18:47.950181,16.740087756254496,-0.3726630774206636,3.690144584427285,12.41201066810866
