Timestamp,TP9,AF7,AF8,TP10
2023-12-07 15:07:45.004004,-9.392640535266368,15.54639557837363,12.444011098323644,-7.058007634080841
2023-12-07 15:07:45.021259,-16.227109579361866,4.57613503001886,-0.9926414172811286,-4.605578766677818
2023-12-07 15:07:45.064037,-12.947312933024692,12.490502972605771,4.7229391370581295,-8.173217581542012
2023-12-07 15:07:45.113089,-9.80646915127002,1.509391542811749,-18.469484904414937,-11.127643254172462
2023-12-07 15:07:45.142189,-12.645800014589106,-20.389024723826388,-45.34736970238077,-5.889147132944787
2023-12-07 15:07:45.155419,-0.277508390700823,-14.788823312119357,-25.26915674158532,0.5765451123678249
2023-12-07 15:07:45.163738,2.469475851176651,-6.563531253321657,-9.361398763761484,2.136785828992064
2023-12-07 15:07:45.322412,-11.75687325205231,-13.656974675110918,-27.087479384733893,-0.9774358798879854
2023-12-07 15:07:45.358168,2.499287829165643,-16.47924392408891,-30.57801237473204,-0.5204568351364846
2023-12-07 15:07:45.572757,8.9898026789372,-21.964048633934897,-30.153391484246825,4.932324380857727
2023-12-07 15:07:46.251077,15.237271165047568,-32.9259372219475,-29.817578748058043,16.47933442409947
2023-12-07 15:07:46.267077,17.625530919538864,-26.37831287788745,-15.497939717841968,17.326877991469917
2023-12-07 15:07:46.295329,7.932982275486434,-30.280675452017075,-19.27982133897824,20.69725246459915
2023-12-07 15:07:46.341334,22.05688443208129,-23.064688457188108,-15.734163328791194,12.945362263633518
2023-12-07 15:07:46.423917,30.284256322568336,-9.248874436201806,-12.446158635853694,-1.366282487483393
2023-12-07 15:07:46.634141,15.934232665163409,-9.237165806686289,-7.17574534078229,3.63926052041114
2023-12-07 15:07:46.695505,23.40960608390638,-19.74023064004898,0.1226281053018613,18.265377378590767
2023-12-07 15:07:46.762676,23.05962628262149,-20.158008450179302,-0.2835668944228474,18.5043401368558
2023-12-07 15:07:46.829515,16.582517174332605,-7.470012485844469,7.565178414339019,10.094197095254971
2023-12-07 15:07:46.901769,26.567282565354155,-5.787125948162054,5.895387970180905,5.781021011286594
2023-12-07 15:07:46.973470,15.694726890837256,-3.682638318938377,5.41145728037687,4.74332900572625
2023-12-07 15:07:46.995464,-0.6249919169402326,8.094914204867699,20.41922726399184,3.023719672599796
2023-12-07 15:07:47.026721,0.5133063816127943,7.3470977849299,16.045349611397352,1.106912209679605
2023-12-07 15:07:47.155858,-2.622323599336382,5.835113452766463,14.596859984337902,2.396476188877149
2023-12-07 15:07:47.176117,-10.5292367078194,8.370413646354619,15.041584810790129,1.1138579578432724
2023-12-07 15:07:47.351267,-10.914987389535773,4.055104196929936,-6.330269688322852,-6.686377531261032
2023-12-07 15:07:47.376863,-3.267256194391983,6.679833439389541,-5.224099295238668,-10.202601397152632
2023-12-07 15:07:47.480870,-0.6113234073374625,10.65211874513164,9.441924800902846,-6.330176496746046
2023-12-07 15:07:47.486982,0.0178423177013964,7.999957117860427,13.94335664898792,-0.772883900329249
2023-12-07 15:07:47.499105,4.963732422009246,12.360606198303902,21.872184569881384,-1.7323049080246236
2023-12-07 15:07:47.537579,4.928258927843955,18.78467577032628,28.3928947596141,-5.034790476199029
2023-12-07 15:07:47.710047,5.930102034937438,15.30508596710796,30.301122675181755,-0.2028196754368936
2023-12-07 15:07:47.902885,0.4202220817288668,9.83463774655818,13.76244280161026,-3.04633866808678
2023-12-07 15:07:47.909948,-12.537796773707848,14.385181027528631,9.035810597825993,-8.653835764669475
2023-12-07 15:07:47.926212,-13.01055074870615,18.462487995500943,23.615312917534496,-4.309330600701862
2023-12-07 15:07:47.967419,-12.56212443623576,13.316499109050271,11.502956707494668,-5.912610918732479
2023-12-07 15:07:47.978595,-10.541482024315398,17.697819570046637,23.489436169656745,-3.904360857045236
2023-12-07 15:07:47.988875,-2.154143685652252,24.311298923393466,43.73052591568363,-0.6525077393817114
2023-12-07 15:07:48.029630,-7.744479203721482,12.519392848383848,13.18037184234674,-4.868664711392236
2023-12-07 15:07:48.042612,-17.186651331918146,2.890506698423331,3.9292225014080335,2.4111596548906533
2023-12-07 15:07:48.085886,-13.728096078983802,2.7292967992503443,6.337580563788319,3.4402070697962364
2023-12-07 15:07:48.372334,-0.162802383314199,0.939485694334655,-6.231265922259628,-5.172870302568999
2023-12-07 15:07:48.382320,14.540521568347431,2.1558646078744323,5.699049408626564,-2.3928671238630046
2023-12-07 15:07:48.411964,16.614885958760045,1.2207835342022897,4.441952543774902,-2.67500087157912
2023-12-07 15:07:48.430321,5.773490628862237,2.18227142585408,-0.015099930319374,-4.162181569771038
2023-12-07 15:07:48.445564,-5.642723592202732,6.824263844299873,8.91103140459272,-1.2283736933670828
2023-12-07 15:07:48.468655,-3.883677372704834,4.413993156120379,2.97770905952138,-2.58058714363358
2023-12-07 15:07:48.492485,-2.685557405391456,8.205337747389786,11.46643693871783,-1.9191372964992564
2023-12-07 15:07:48.507503,-13.141925944198292,13.41725029859218,16.454580536262224,-2.2391989220151545
2023-12-07 15:07:48.755005,-6.346432986744039,8.897535211920392,8.76860896799655,-3.5311136816800217
2023-12-07 15:07:48.765125,4.113162208420018,7.789109681892853,14.255533245337023,-1.348005680061383
2023-12-07 15:07:48.784331,-10.394876770449269,4.653368129482867,-1.971789392041952,-4.248290817228292
2023-12-07 15:07:48.794256,-19.25053946551496,3.6532418031209546,-13.3769149033002,-8.077922413106478
2023-12-07 15:07:48.925560,-7.934388532862079,13.0115010954608,14.26483427643229,-4.317061600606529
2023-12-07 15:07:49.099790,-0.875017554890898,13.541609313047545,22.22015370252281,-1.6757357810488185
2023-12-07 15:07:49.169053,-7.808599519375826,8.275261964194646,-3.4980431164094714,-10.34672344281956
2023-12-07 15:07:49.236252,-15.363267509834143,11.574425732171555,-9.889500987660584,-16.394497232619827
2023-12-07 15:07:49.243556,-15.975660218671296,14.45753916148788,7.618434154945248,-7.929888323701885
2023-12-07 15:07:49.268704,-11.343782766408308,12.53214084556101,12.668528397472624,-3.48978632943855
2023-12-07 15:07:49.289929,-3.2888731025409585,12.48807853863148,14.370414225849895,-4.718026232304887
2023-12-07 15:07:49.339405,-7.4968750693596515,9.2784142895768,4.951201022618873,-5.612161249324177
2023-12-07 15:07:49.389450,-15.621012940845606,0.5797868749212106,-25.595995717257168,-12.705348792891122
2023-12-07 15:07:49.570497,-9.25320588164938,-1.1585648167920246,-19.521643858636093,-8.229329034464456
2023-12-07 15:07:49.652285,-9.50523126096802,-3.3955666546534555,-13.200315474122544,-0.8571900308980335
2023-12-07 15:07:49.669329,-9.45260439779406,-13.30300407245842,-43.01593549219188,-9.123841845477168
2023-12-07 15:07:49.780971,6.318670046418782,-14.298578269510726,-26.35806396699915,-1.985705997411773
2023-12-07 15:07:49.820405,12.436972643027362,-13.718957159649191,-3.4278577545666065,11.08061464590977
2023-12-07 15:07:49.834415,15.325005599320992,-17.93581010195137,-17.59414359464496,5.342552816210448
2023-12-07 15:07:49.883973,15.620811031686772,-11.87280944616401,-0.6762730393079329,9.347693930625985
2023-12-07 15:07:49.999160,-2.666966208354155,-8.06845412696796,4.8729506635345095,15.498327941318538
2023-12-07 15:07:50.020388,3.161055672781932,-11.870264532452776,-12.124423819762006,5.787880135085602
2023-12-07 15:07:50.200066,29.85075777030988,-8.910792579416698,8.09531256250181,5.430291379860735
2023-12-07 15:07:50.210068,20.382058185162418,-6.619831293457358,15.261910426574136,11.43496413166845
2023-12-07 15:07:50.223337,2.551977424902639,-5.204527123978159,2.782532874649304,7.825198693888161
2023-12-07 15:07:50.297559,7.201829653543928,-2.1824064736773443,6.94902653961663,4.674252301683898
2023-12-07 15:07:50.324772,6.574654032944005,-5.084840293480837,5.709716280832647,7.956985336872453
2023-12-07 15:07:50.423248,3.066005028872081,-3.298805353839248,12.370188624927357,12.147793282291705
2023-12-07 15:07:50.516568,4.691680648881506,2.3949564725582992,18.736686530725976,8.399574020526664
2023-12-07 15:07:50.529632,8.3771210834021,-0.3979468908479724,7.238563921898696,1.756209761303906
2023-12-07 15:07:50.638760,16.713364255023,-3.814183450880309,5.110840597152655,0.799971863072114
2023-12-07 15:07:50.674015,8.6425412287345,-1.1132007175814274,5.458541220592246,1.1267353137463565
2023-12-07 15:07:50.789046,-7.116339431123362,5.436009331401455,16.811189259940544,8.491648168013661
2023-12-07 15:07:50.796035,-3.824659130854137,6.58575067476487,25.250051727809684,11.856484587046198
2023-12-07 15:07:50.919449,4.158049799991868,-2.211848350621966,-4.600440189963952,-3.09272251483085
2023-12-07 15:07:50.971141,9.204475907836317,-3.466035996245505,-6.764633909950273,-5.709764918516069
2023-12-07 15:07:51.071487,4.718690060761959,5.357032673441394,20.275011112927466,5.465282485445332
2023-12-07 15:07:51.219118,-9.135684759460132,6.179745580217049,6.052993370938515,0.497027276077309
2023-12-07 15:07:51.230298,-11.155964511163898,2.8242788827383043,-10.443424713953332,-6.761339054701886
2023-12-07 15:07:51.250915,-3.472875350277679,4.350070313441703,3.841489891889376,-1.729836604597808
2023-12-07 15:07:51.318586,7.852596037298933,3.897206464877025,17.84828922771348,3.962393564869904
2023-12-07 15:07:51.334689,3.575625431837288,3.971149152623748,14.005615224865693,3.1854343891009544
2023-12-07 15:07:51.361563,-11.242469438364637,6.645681614323841,2.965483491988328,-1.216552158292408
2023-12-07 15:07:51.479563,1.3128486234045391,4.080747009657722,9.35952382564084,0.4944572563565349
2023-12-07 15:07:51.562871,4.035868793558195,3.34886702906929,14.196039119303558,4.032616688950961
2023-12-07 15:07:51.641565,-13.935894001672446,6.147016252342839,-0.0635630617083127,-1.0968442654195023
2023-12-07 15:07:51.655561,-7.045495466806496,4.408399372075015,0.8688405535308853,-1.887023814296904
2023-12-07 15:07:51.682127,1.7113622681869003,4.321094147853434,14.466045792347316,4.321284377496554
2023-12-07 15:07:51.709252,-7.204715103297209,5.899501737768286,6.603514207494563,0.9501168111113591
2023-12-07 15:07:51.794377,-15.135990259032022,5.073013198379934,-5.667668035037598,-3.1266130338823404
2023-12-07 15:07:51.827511,-6.347295384472909,3.939752687456198,4.604260691461737,1.7548005456511977
2023-12-07 15:07:51.906605,2.9060659251392766,1.2341097093797817,5.043313880736171,0.2456179456319467
2023-12-07 15:07:51.965192,-5.649218474477045,-1.9907431955819703,-16.91579420390178,-8.065804954413148
2023-12-07 15:07:52.030198,3.055666217409609,-3.9663404909920073,-12.506391058038377,-7.028424771484408
2023-12-07 15:07:52.245059,6.799586336425535,-1.2123386300998655,2.841668062977856,-0.5113364886374068
2023-12-07 15:07:52.333799,-11.90228482042715,3.516285395654537,-2.351425920280848,0.4001618952204619
2023-12-07 15:07:52.376349,-3.0898063703453933,2.6876451587001866,3.455129781741988,0.7443570283214227
2023-12-07 15:07:52.505391,2.582249733464738,0.226587834162813,-1.607717251836423,-3.788111479276949
2023-12-07 15:07:52.530677,-5.889480954251379,-1.2440386284313525,-16.174085065732385,-8.388695716200257
2023-12-07 15:07:52.548759,3.9493771987143806,-0.3396392472886014,8.383882673773968,4.913985896588691
2023-12-07 15:07:52.571036,10.423975148537192,-0.3599233235554806,17.460413063694542,8.383931080916001
2023-12-07 15:07:52.591598,10.530682563186607,-4.966191046077964,-5.2085466098829984,-4.581890033519971
2023-12-07 15:07:52.649912,2.229348615947028,-3.100580935655015,-5.465746727952437,-1.7694457129540708
2023-12-07 15:07:52.703935,-3.492679378516441,-0.5547487312286621,-5.01386217383655,-1.2571330714568862
2023-12-07 15:07:52.716943,3.91690568945868,-3.099950249483986,-10.984280537278716,-8.029605364348127
2023-12-07 15:07:52.849340,-1.545163075681551,-0.7066682311956108,-6.936401892920341,-4.120678710352095
2023-12-07 15:07:52.875552,3.0378252264616257,-1.9631730173783173,-3.2770533857383217,-2.1872546524829106
2023-12-07 15:07:52.892128,8.85104603697213,-4.260041520300045,0.066689652348029,0.2025743509189613
2023-12-07 15:07:52.920473,-6.908190154562179,-0.1221765754635447,-2.9947657514852946,2.704247209302284
2023-12-07 15:07:53.012841,0.7033753968972197,-2.921164588424291,-9.02097010356104,-4.06757445228725
2023-12-07 15:07:53.059323,6.297238443621106,-6.033511262317988,-17.722852041103767,-11.231713036575393
2023-12-07 15:07:53.195269,-11.588250250817268,-1.802082368488566,-25.84608034121769,-11.737343384420807
2023-12-07 15:07:53.291146,-5.875075116008788,-1.9322953724609224,-14.882536567841736,-5.886548577700027
2023-12-07 15:07:53.310198,2.8380335306499447,-4.034952405538631,-10.036009535616458,-4.75780010235345
2023-12-07 15:07:53.328520,-6.106508932397211,-3.104823932577575,-19.02287974671061,-7.561796204085684
2023-12-07 15:07:53.362966,-5.549736224906046,-3.802570369109396,-17.382722472390462,-5.377537519817886
2023-12-07 15:07:53.411501,-0.8100489413821841,-3.61159956237138,-9.429037056920189,-2.092150544804976
2023-12-07 15:07:53.432900,-6.271578736670771,-0.4301695514239045,-2.153210023765194,3.722421170056866
2023-12-07 15:07:53.461769,-1.5483444627463312,-1.7310495644504718,2.684424645523252,6.566629459911304
2023-12-07 15:07:53.679435,16.56537021912285,-5.235850710208413,12.062055953531823,6.629133488944285
2023-12-07 15:07:53.703509,11.026410126229235,-2.2247442853856727,16.06351590917844,9.73387547647976
2023-12-07 15:07:53.751447,3.1705227002669685,-0.8980440701529758,11.320303983710607,9.335987839715944
2023-12-07 15:07:53.787232,17.79478535601655,-2.867344811168169,21.47670187814568,11.36095453326745
2023-12-07 15:07:53.820615,14.032021331028766,-1.1492978874612911,22.626663762541725,13.575076364062742
2023-12-07 15:07:53.959070,1.1539091014267566,-0.7939736084963631,3.58771273912382,0.4692099296844922
2023-12-07 15:07:54.054927,0.7835307042546309,-2.6991772203586915,-9.45456731923845,-9.265621052645656
2023-12-07 15:07:54.179132,-4.137089359354939,0.7442149833970552,-2.438386504630086,-1.6452003534348802
2023-12-07 15:07:54.320402,-1.6820676902699068,1.898579737561107,7.676930401943391,6.054079597906695
2023-12-07 15:07:54.395204,-3.5164469096339954,0.7894335566450607,-2.266691030383869,-1.309824559648589
2023-12-07 15:07:54.534824,-3.882817722975998,1.265772732046116,-2.1860716782425778,-0.6048757729097191
2023-12-07 15:07:54.547275,1.0070174405472203,1.6643481762790289,9.328119374585311,7.314983102139734
2023-12-07 15:07:54.555401,-5.39392814557714,2.248727142364781,2.3719485157095423,2.739521033973907
2023-12-07 15:07:54.564599,4.882041392647528,0.1304625763685203,5.853717382026398,4.357384731182775
2023-12-07 15:07:54.571679,10.025289592341098,-0.6687459599850194,10.411869364713606,6.979284596244487
2023-12-07 15:07:54.623231,-1.8474570650670443,0.8167881296379574,-0.1425978159990468,0.2958253479085237
2023-12-07 15:07:54.655649,4.955301309680682,-1.619482508438876,-1.6477520550075586,-2.22411972528601
2023-12-07 15:07:54.897846,2.365927133863904,-0.7359191316848555,0.4676685695618912,-0.601786347598859
2023-12-07 15:07:54.911068,-3.9160437673972734,2.679453704945659,6.350996078733703,5.836635358880002
2023-12-07 15:07:54.945283,12.007902326551424,-1.999584927396767,6.404713489018879,3.4967918402257525
2023-12-07 15:07:54.988385,7.656088133723274,-3.1803138682803525,-4.137373851676749,-5.070584533009928
2023-12-07 15:07:55.045337,-10.661248994531611,3.467608095755353,-0.5934930746363802,1.4233368140355775
2023-12-07 15:07:55.079686,-0.789911614499762,1.9223066658657315,7.336853915322805,6.071626156062549
2023-12-07 15:07:55.140220,1.8816505548603413,0.1957651144637197,3.182481515067414,2.1240356695119305
2023-12-07 15:07:55.231451,-11.820913494666655,4.029662236835374,-2.157559621654592,1.1480837589439037
2023-12-07 15:07:55.278831,5.931237049625982,-0.7969963596278338,4.359852443212635,2.464478981399686
2023-12-07 15:07:55.369080,13.822892945626004,-2.857993116104539,7.17145510893655,3.1981615105654946
2023-12-07 15:07:55.387276,-9.630343559883933,3.0537236734356576,-2.157071263898691,0.2418857881214323
2023-12-07 15:07:55.470265,-1.9199989705965013,1.308930500297887,3.476189227874863,2.758376231957868
2023-12-07 15:07:55.514097,13.32798543376412,-2.2742872409801462,6.58486112753727,3.819729751880992
2023-12-07 15:07:55.740179,5.296406767662387,-2.0490890738566367,-7.833983566367705,-5.458342994583028
2023-12-07 15:07:55.869714,1.238838232302628,-0.1739410964313095,-5.072772958708738,-2.5506714374712023
2023-12-07 15:07:55.898705,-1.4761322221680402,2.196960489800942,3.405166771095253,4.3018239777133696
2023-12-07 15:07:55.938522,6.76684128506838,-1.175491000632242,4.134585526331047,2.1272849505383884
2023-12-07 15:07:55.982521,12.237986590105402,-1.1745103835285926,8.328364519470355,6.12543713887066
2023-12-07 15:07:55.995036,-14.340497867574085,4.448438562257917,-1.950114148598753,0.6939311290334241
2023-12-07 15:07:56.014038,-13.85744315876316,1.2381086504716856,-7.421921691712635,-6.905123548957636
2023-12-07 15:07:56.276888,17.75596144282829,-3.185106989615482,6.417323410153766,4.143922653320351
2023-12-07 15:07:56.291895,5.59607421337346,-0.3291683161396863,1.9147432326503944,2.1567451403242903
2023-12-07 15:07:56.315028,-8.967092411402685,1.3581794384327626,-3.7254051356615214,-3.2553558656460706
2023-12-07 15:07:56.371049,11.132960754620928,-0.3389024070360677,5.755247623120478,5.93207604735712
2023-12-07 15:07:56.479795,9.395266488645492,-1.8319284567909584,4.666137273325853,2.440446957470255
2023-12-07 15:07:56.557332,-0.9581250978857254,0.1265644269833229,5.592442248986393,2.0352362428123287
2023-12-07 15:07:56.567320,1.6617195300570082,1.444000701248425,5.038239296259573,4.863381372657539
2023-12-07 15:07:56.667871,-6.197847557198118,-0.7098220522234543,-7.2520970346832305,-7.085726041670355
2023-12-07 15:07:56.682884,-11.509219690147708,0.1825469811987914,-9.769247588942392,-8.873183184806393
2023-12-07 15:07:56.704394,-6.055685747828883,0.7122984189675615,-5.28260979673034,-3.946244200190324
2023-12-07 15:07:56.832759,2.98889971241925,-1.6112600895372988,0.0554095351576116,-1.6533421115283542
2023-12-07 15:07:56.875796,8.347023945867042,-1.1680890015114989,4.223261701076224,3.0276010938550355
2023-12-07 15:07:56.934334,4.552038215334348,0.9862799661667576,3.642807843079816,4.616098596089091
2023-12-07 15:07:56.953334,-6.481813054512241,3.8533312243022335,2.039200771769648,3.918209162240328
2023-12-07 15:07:56.997857,-13.900861873390967,1.9083177563720224,-7.196184516565275,-6.096802533037522
2023-12-07 15:07:57.231386,5.152463233737129,-4.4156656902115605,-12.453847100250758,-10.409712885435852
2023-12-07 15:07:57.236448,12.893861033458675,-2.6442760650678454,-7.968383733701683,-2.5450683118194184
2023-12-07 15:07:57.243476,-11.53837761508836,2.4196272749488816,-10.18082121445474,-5.57843058278675
2023-12-07 15:07:57.323071,-17.532147809488166,4.625150326828958,-11.092362917761298,-5.075695103413239
2023-12-07 15:07:57.376928,-14.40795461948745,5.468017710368496,-9.053427935914112,-1.71062927118613
2023-12-07 15:07:57.465456,-8.499233443669416,2.4715320821629283,-11.383165896892276,-4.783544789764314
2023-12-07 15:07:57.493364,2.125465616823812,3.7433981843505824,-10.803061179155469,1.7316768272288392
2023-12-07 15:07:57.533374,-7.329154404078864,5.813551137562757,-10.530807702245156,1.0247949981240678
2023-12-07 15:07:57.561380,-1.955349304514785,2.4526843943844607,-10.744993780783451,-1.817416153688593
2023-12-07 15:07:57.606909,5.42220211529823,4.0737635117125,-10.340290541511305,3.775596967984283
2023-12-07 15:07:57.656915,-13.313036191055044,3.589277825007461,-13.471244397432896,-6.102616467448185
2023-12-07 15:07:57.777838,-12.946268879679897,1.1106281750695048,-9.234493864366843,-7.832322846278777
2023-12-07 15:07:57.864193,2.8624053088295693,3.863273315662546,-3.007297111493909,5.361239093976175
2023-12-07 15:07:57.888213,12.790625259910328,-0.1932082493324518,-8.25376248425756,1.516949030478034
2023-12-07 15:07:57.947068,3.1259499815217127,-1.7910084665243748,-9.05544802115563,-5.159737752167287
2023-12-07 15:07:58.047718,-25.49155791688168,4.5148379905060825,-4.232348974310003,-6.345371407669278
2023-12-07 15:07:58.082961,-8.265402162735302,5.147041283406408,-7.564445311761483,0.4732588597044889
2023-12-07 15:07:58.183281,42.933781671072566,6.527743475165577,-11.652862486136492,22.732494952021835
2023-12-07 15:07:58.229824,43.94932244936488,8.469787199400997,-13.710287287072966,25.127108349565127
2023-12-07 15:07:58.259822,15.807313224524172,7.495277600570828,-16.522465644792643,10.447979780032826
2023-12-07 15:07:58.278853,22.655843298086733,9.70617816249558,-18.571316122862203,15.659740392125943
2023-12-07 15:07:58.305852,28.091787612394544,9.196075344807982,-16.116248381690852,18.307176891673222
2023-12-07 15:07:58.398818,9.43393311387455,10.598565425018757,-9.839106666923888,14.625962834985785
2023-12-07 15:07:58.404818,30.159559395942235,16.917809222561264,-13.958613839100405,30.74858207073789
2023-12-07 15:07:58.413820,45.33360728560337,10.666002917356568,-12.949701390105115,29.156862316896632
2023-12-07 15:07:58.599285,-3.7533448459580088,-3.688041855718781,5.92905488939739,-4.691120432578864
2023-12-07 15:07:58.611286,-28.488140017777443,-8.109907293112148,10.5946780814863,-19.7941870658628
2023-12-07 15:07:58.728859,-14.670433760192791,-4.7600607664560455,4.177202942600127,-11.632162960266696
2023-12-07 15:07:58.757864,-11.275774529235685,-4.811430437212708,6.003074085130971,-9.514352779335171
2023-12-07 15:07:59.007751,-1.865179338528492,-11.30235780974913,6.317970757606245,-13.910793163389084
2023-12-07 15:07:59.012748,2.988174837640904,-9.709095503996885,6.128221619736187,-9.625039349713504
2023-12-07 15:07:59.045756,-2.0846921874172817,1.6714128885592463,6.198197035049485,3.331846226855561
2023-12-07 15:07:59.070022,-4.333627828739313,2.5006206404599824,6.976427774878001,3.736841479575821
2023-12-07 15:07:59.099561,-13.76368419172726,-0.5503306333352604,7.711816967206581,-4.309727817805505
2023-12-07 15:07:59.117551,-25.14308211799436,1.9120750244505769,3.029692087535618,-8.061544424739237
2023-12-07 15:07:59.230650,-29.52164141767766,-0.9140740721942098,4.150500324490092,-13.325839925346262
2023-12-07 15:07:59.252761,-12.909976506012088,0.0374111641657177,4.009419650741193,-4.586924632999527
2023-12-07 15:07:59.284772,9.090565488322762,5.781988441620684,-3.989766673323553,9.878944313433475
2023-12-07 15:07:59.390953,-4.716440747928614,3.2720049726336065,-0.4229880264878953,1.6839288429767194
2023-12-07 15:07:59.514076,-15.483762299114757,-0.771572394752868,6.129917258669288,-6.017702447010754
2023-12-07 15:07:59.527079,-5.584936917802126,-4.11216944480831,6.119617992202074,-5.836419869438916
2023-12-07 15:07:59.555085,-16.662605143761667,-7.856389531056192,8.890710819984722,-14.720507246133916
2023-12-07 15:07:59.617460,-7.963727493799629,-8.810249971313272,6.596806907249713,-12.758134644429994
2023-12-07 15:07:59.653717,11.418357940462666,-6.96872157510854,2.624523060134908,-2.900867615632729
2023-12-07 15:07:59.794555,-11.72522387415107,-0.7682305263077764,4.530313453077496,-5.019998738309972
2023-12-07 15:07:59.827567,-9.05822063335615,1.1802518112209015,2.12078402180615,-2.2239615377608755
2023-12-07 15:07:59.897724,17.986858639790952,-0.9963967438321204,-1.3606821936503648,6.325601482733662
2023-12-07 15:07:59.959079,4.68601194128069,1.1857498040480687,-0.407351955706185,3.2638611576273275
2023-12-07 15:07:59.966689,-13.01270220557658,0.8418165238363714,1.2873612993085326,-4.813783110005459
2023-12-07 15:07:59.987094,-18.76543690144415,-3.4279539019885146,5.033069431375888,-11.502131169364713
2023-12-07 15:08:00.014681,-10.534400333673895,-6.95668546554191,5.902639273701892,-11.741091626183367
2023-12-07 15:08:00.073182,15.562580299000253,-5.403391083221199,0.987030409585654,0.6797099485096088
2023-12-07 15:08:00.282766,13.469357026357365,-1.7749805829291192,0.9024264108189968,4.232325858841223
2023-12-07 15:08:00.327279,-2.238242537831902,-2.968451176368009,3.2681302367814395,-3.779109669487678
2023-12-07 15:08:00.438553,6.317244197701184,0.9827353221384312,-2.0921566227034645,3.174878513280288
2023-12-07 15:08:00.487325,15.649542816281633,2.229255404246548,-4.243229108681259,8.361016148086831
2023-12-07 15:08:00.575352,17.69390883750287,-5.774128447341629,-0.0362986746777415,1.0311564403252964
2023-12-07 15:08:00.602870,8.695053143154215,-2.425162691574492,-0.6269064806416701,0.6921693352883693
2023-12-07 15:08:00.626878,-13.613736058891718,3.159581930066353,-0.3268269992568301,-2.940680449595074
2023-12-07 15:08:00.638916,-11.915752303333804,2.0373390167882164,-0.1879857270238444,-3.474711525876247
2023-12-07 15:08:00.694904,0.6874443836082627,3.3969597541056724,-2.690440653847645,3.278237097442751
2023-12-07 15:08:00.918460,-4.542582497196347,-1.0461063724353346,1.0755926756712009,-3.2797966563823704
2023-12-07 15:08:00.964478,9.201658392700786,-3.923296189477822,0.3244763252462818,-0.5006835914705979
2023-12-07 15:08:01.004440,31.74462721861304,2.58667984377906,-7.642169456523984,15.324494278642376
2023-12-07 15:08:01.018462,26.26798171106937,5.005958758262399,-8.754336837476139,15.258719679282184
2023-12-07 15:08:01.030446,3.3324701140290367,1.378072718247582,-2.3256339786283453,2.2068590503370764
2023-12-07 15:08:01.211575,-15.618872001821728,-0.9880960740427702,3.5645267022632368,-7.623328491227629
2023-12-07 15:08:01.348111,-0.4465921167597347,1.3000536796265811,-1.0944114662556292,0.7300504369847768
2023-12-07 15:08:01.354111,16.718318695845564,3.513037910814128,-6.593095750161321,9.672605060284983
2023-12-07 15:08:01.375116,3.7136183317455504,4.132251732873272,-4.287076678507523,5.026128164493334
2023-12-07 15:08:01.530895,1.8929470110165407,7.392087898406104,-5.989086525943055,7.475608991751038
2023-12-07 15:08:01.542946,-1.056917269643484,9.359262597563172,-6.854722246715389,8.11422665098006
2023-12-07 15:08:01.586043,-9.934145804210528,9.742115681844396,-5.34534893479298,4.842622866103457
2023-12-07 15:08:01.649608,2.148335148952178,8.874573438457842,-7.16270090647036,8.950493036873278
2023-12-07 15:08:01.669610,10.450332881840982,5.396416269826135,-6.558326724422804,8.981948874617533
2023-12-07 15:08:01.728573,12.067467382240446,5.950454396434765,-8.34542430169236,9.797773572577954
2023-12-07 15:08:01.790352,10.234379220858449,7.5793219396332,-10.027881577652794,10.289161830523527
2023-12-07 15:08:01.933457,-3.883342021891445,6.581075996185833,-6.159742173722127,3.692445683922768
2023-12-07 15:08:01.944462,-7.518785196929038,9.856536312795464,-8.019398960229566,5.216857328064393
2023-12-07 15:08:02.041803,11.128496030533352,9.578227495925132,-10.095186769634012,12.95693048480921
2023-12-07 15:08:02.159696,20.986081326831464,3.750573636080735,-7.7920897036599746,11.777248622884173
2023-12-07 15:08:02.301531,9.54248182158323,5.707770232624148,-6.640841809380806,8.862232179373462
2023-12-07 15:08:02.329530,1.934721898438564,6.691020203260798,-5.62268144012753,6.641096528411986
2023-12-07 15:08:02.340526,3.176163127335123,-1.976059195726864,0.9783003442560304,-0.5767341856406684
2023-12-07 15:08:02.379535,-3.3178136936029103,-4.939022861605015,4.872106635535852,-5.86087002942505
2023-12-07 15:08:02.406050,-5.429506373500609,-5.919223104969368,6.151308788200622,-7.593847012455652
2023-12-07 15:08:02.414051,-7.714363467148517,-10.350402688142449,10.216828872027447,-12.47253083958819
2023-12-07 15:08:02.469325,-12.93574578952713,-6.371978774514919,8.287078872585287,-11.052752572192086
2023-12-07 15:08:02.538550,-2.420156388193979,0.5072288591126934,0.3250624734235476,-0.6407504599580777
2023-12-07 15:08:02.576376,8.456425946916115,0.763199063664759,-2.453388824982256,4.016146446258092
2023-12-07 15:08:02.702983,1.625074538605732,-2.791851750053235,1.990899863062592,-1.932686031512566
2023-12-07 15:08:02.744905,-12.447129091521989,-5.718804198354314,7.649153252844833,-10.26982878805742
2023-12-07 15:08:02.806458,-20.036533034012606,-6.813971584405383,10.315780988827385,-14.335142197428528
2023-12-07 15:08:02.849466,-25.168841701389773,-9.533931085526762,13.69341025487843,-18.847909296555866
2023-12-07 15:08:02.863473,-36.56808646089322,-13.497925898759403,19.543868947365794,-27.020767561412
2023-12-07 15:08:02.948423,-41.58567895116205,-18.139406046028896,24.42287387456996,-33.199051453401246
2023-12-07 15:08:02.973533,-28.748113353701005,-17.666053607795014,21.00693021534877,-27.549713876436325
2023-12-07 15:08:03.118575,-7.942906997358015,-8.087626717556867,8.46173161050404,-10.54259852776411
2023-12-07 15:08:03.163589,-4.049874529679123,-7.294522448797248,6.90821203595433,-8.249948590413993
2023-12-07 15:08:03.194604,-12.962363305506862,-13.14180186255491,13.668051429020917,-17.088357223842134
2023-12-07 15:08:03.280440,-4.304599389113573,-8.805091914122816,8.167644060799667,-9.697894420775016
2023-12-07 15:08:03.320994,11.208420233714332,-7.183547467449482,3.2047597671834245,-1.935862049551469
2023-12-07 15:08:03.494216,13.363379173197217,-10.46240029007916,5.301774222980558,-3.979308754897121
2023-12-07 15:08:03.579291,-1.9981159376794169,-10.403680058694874,8.889208012586089,-10.18024406533284
2023-12-07 15:08:03.659703,-24.537811655183923,-13.195138508203804,16.4429050570701,-21.843565602088898
2023-12-07 15:08:03.697714,-18.82035844743684,-10.26972949345848,12.760854288296738,-16.90767258077632
2023-12-07 15:08:03.835797,3.427183390628649,0.0942312021969637,-0.7511474165436525,1.3870646116424377
2023-12-07 15:08:03.850794,4.171850355699831,-0.7069938948503948,-0.2916885327957764,0.9774991963770112
2023-12-07 15:08:03.870797,-1.843441844901254,-9.791268931627313,8.357131948359566,-9.5655351729708
2023-12-07 15:08:03.911377,-6.948753968089427,-11.141582766163587,10.6378390357143,-12.846117588598776
2023-12-07 15:08:03.942376,-20.591470458922693,-7.155924981285556,10.694069869393084,-14.847603809854856
2023-12-07 15:08:03.981061,-10.897137225961051,-4.526455659693442,6.305927128158959,-8.556043013221455
2023-12-07 15:08:04.177429,11.924051782659308,-3.475005641176021,0.0663568183244741,1.673863814964347
2023-12-07 15:08:04.249972,4.858381864401268,-4.422394772583601,2.4902903390917843,-2.0456715770129046
2023-12-07 15:08:04.299570,1.1762915868286297,-0.4886434798031822,0.2302244487341576,-0.0378658357681621
2023-12-07 15:08:04.335269,3.113322632747592,4.95496712143085,-4.560932415761982,5.603236918115556
2023-12-07 15:08:04.353273,-13.277216359020816,1.0454717704642342,2.426288570999631,-4.552374808182503
2023-12-07 15:08:04.363274,-9.761853913948256,2.004921338035384,0.8288418683251944,-2.264548336476672
2023-12-07 15:08:04.494269,10.435704439642342,8.429441279640992,-9.064552958959704,11.68542434246026
2023-12-07 15:08:04.554500,13.670135946222338,1.964249099303175,-4.6889708889632455,7.242648564756919
2023-12-07 15:08:04.690376,-10.155002414691102,-5.931249632920798,7.228691399425827,-9.491828301880792
2023-12-07 15:08:04.841894,-27.764881597704125,-3.579294864847948,9.523052967435149,-14.564015940481683
2023-12-07 15:08:04.878987,-7.637157267701703,-1.1407571124906812,2.8170582872623045,-4.194375884873652
2023-12-07 15:08:04.892071,-10.055364222846189,-2.326579206726909,4.33035816425439,-6.233912745323639
2023-12-07 15:08:04.898479,-28.11277679383304,-1.693952990610272,8.098338378395477,-13.02037478526547
2023-12-07 15:08:05.004267,-3.588899755616585,2.2325607111497177,-0.8319465001875767,0.4651739278607927
2023-12-07 15:08:05.128787,9.148032709066674,4.241568625034495,-5.447160516738048,7.443021001054864
2023-12-07 15:08:05.152793,-6.027098689953317,0.4919648700762445,1.1248285075632931,-2.074986873234144
2023-12-07 15:08:05.172795,-1.7498565797425474,-2.6343562839585712,2.597108138935171,-3.1176326679899886
2023-12-07 15:08:05.264617,6.697938933407619,2.547571995817236,-3.527256758759929,4.94143996876082
2023-12-07 15:08:05.372589,-2.2461044531836696,5.278277755078999,-3.5854276932523845,3.735198292145837
2023-12-07 15:08:05.383594,-11.322154263722645,0.5549604577820593,2.3176154799891404,-4.167236031219379
2023-12-07 15:08:05.442418,-16.037106326034156,2.5240059455861235,1.864428915529558,-4.330332400742978
2023-12-07 15:08:05.451419,-14.734167961700896,4.392590061881423,0.0668784478320463,-2.1327901814626857
2023-12-07 15:08:05.499086,7.18102988247098,0.5005567662790577,-2.0262203663724945,3.3234987220555063
2023-12-07 15:08:05.681647,16.21781965995556,3.786203755933104,-6.781523276061973,9.932635575618429
2023-12-07 15:08:05.718249,-5.088642305893586,5.155564150379608,-2.8309477734705246,2.480053057664123
2023-12-07 15:08:05.743289,-10.843994764681078,0.7047591242807105,2.069290644806866,-3.827468833694372
2023-12-07 15:08:05.842310,-2.0053837728264594,3.6900715037275007,-2.400214277874664,2.4333701146098297
2023-12-07 15:08:05.883320,2.722264576465956,5.6164770102917405,-5.0543713466521085,6.076842602448048
2023-12-07 15:08:05.974157,8.290772659972124,3.244864633695694,-4.488286774607663,6.232602165557782
2023-12-07 15:08:05.991431,12.846523883697929,7.539143810088424,-8.985516465086414,11.916166228253532
2023-12-07 15:08:06.030226,26.344711787763625,9.34386312793004,-13.61862460122756,19.02208624148688
2023-12-07 15:08:06.052228,27.02130200185024,4.380094953673488,-9.832598612103356,14.876203538431753
2023-12-07 15:08:06.082245,7.117322699441772,4.354849963490657,-5.104529727443675,6.751900087031551
2023-12-07 15:08:06.146799,3.876639806624604,7.233016818638839,-6.629985883295486,7.999261266580076
2023-12-07 15:08:06.194802,2.7731563195374807,7.099721508399995,-6.265507965952586,7.433180811890301
2023-12-07 15:08:06.221321,3.752388559582572,4.496171851167501,-4.428753436793336,5.513758341235608
2023-12-07 15:08:06.257488,21.47819791471789,1.6145541591609671,-6.334226463358564,10.164809645669504
2023-12-07 15:08:06.284489,16.791915907759055,2.159246902261661,-5.661148429248899,8.744170977049123
2023-12-07 15:08:06.513976,1.942972026223928,2.326734252946134,-2.2827581399030694,2.849719359445821
2023-12-07 15:08:06.544138,7.433681179649215,-0.0036957868532255,-1.7309869305635075,3.010475938561828
2023-12-07 15:08:06.578146,7.731857960570602,1.1085555472214872,-2.6890743197361315,4.12497115150134
2023-12-07 15:08:06.668674,0.3633913714769231,3.679273597957516,-2.992938134073748,3.41770166991872
2023-12-07 15:08:06.709221,5.018746141948593,2.9825444342629805,-3.543096335488107,4.694147382588399
2023-12-07 15:08:06.732217,7.067410819728127,1.2576610193757916,-2.6583650813916617,3.993067957560425
2023-12-07 15:08:06.763226,-5.904431557319068,-0.3923084233105723,1.7217247044593127,-2.756780276904901
2023-12-07 15:08:06.828754,-4.0144006505769685,-0.9426998043397145,1.709682226155872,-2.4758573367378647
2023-12-07 15:08:07.000041,7.401940650343714,-0.3378287994120699,-1.4760108520639128,2.713113818180462
2023-12-07 15:08:07.019567,-1.0828497463282687,-2.235857092330538,2.0395276761058683,-2.4309577036523105
2023-12-07 15:08:07.112199,-1.47558369246926,-2.4125767807762903,2.2705528179101404,-2.746513786239214
2023-12-07 15:08:07.173384,1.8093002860108391,-0.2994934884290193,-0.1904205707137993,0.4757306660783124
2023-12-07 15:08:07.263938,-11.936535865425148,-2.902553534464086,5.131225514290427,-7.438675322464172
2023-12-07 15:08:07.396697,-11.206772098262851,-3.5954398878801825,5.5073052593955305,-7.757244119534041
2023-12-07 15:08:07.474614,-4.914277553967975,-0.7824922415207676,1.7778326412645074,-2.686867849911185
2023-12-07 15:08:07.580144,-5.73467078505153,-0.6294577515250068,1.847890056031902,-2.882800255512503
2023-12-07 15:08:07.602153,0.4456967981818906,0.7226414802978014,-0.6928105290172303,0.8400774122475915
2023-12-07 15:08:07.674690,-2.7635413116896945,-0.154967503137226,0.7626112025533565,-1.2469419980221843
2023-12-07 15:08:07.710204,-4.717543094012468,-3.740942984842919,4.075611602213743,-5.236417883257645
2023-12-07 15:08:07.909554,3.326537327385548,-3.720540885130737,2.1533555997340152,-1.941529322103954
2023-12-07 15:08:07.927553,-1.987982869756312,-4.238349603871164,3.820918470277187,-4.565159361589913
2023-12-07 15:08:07.976561,-4.59019172047424,-4.173705469890687,4.383227883531672,-5.565479520780975
2023-12-07 15:08:08.036112,0.3668847545823264,-2.370854149688165,1.7736893630087491,-1.939152425312416
2023-12-07 15:08:08.163690,-5.032028556640724,-3.279621136413621,3.772377335528665,-4.945627708899885
2023-12-07 15:08:08.258482,-6.079801499607408,-3.142485836711432,3.909256605314372,-5.248564993666532
2023-12-07 15:08:08.273483,-1.2506110838767353,-1.726959095899644,1.6382534811218898,-2.0195583990456427
2023-12-07 15:08:08.307019,-1.9121907071650743,-2.2828569575222786,2.2351626243772285,-2.782906083373549
2023-12-07 15:08:08.375032,-2.110817525235632,-1.7535602302379891,1.859233768527267,-2.390757022991195
2023-12-07 15:08:08.385036,-0.8359338297166883,-0.3249637709116743,0.4191844052315258,-0.5973247730075623
2023-12-07 15:08:08.405553,-0.0053567477299257,-1.1946744233667377,0.9127420763243448,-1.0329039162674418
2023-12-07 15:08:08.466667,-0.5307573609165329,-1.6838253715639453,1.4245223561370255,-1.6814730748927964
2023-12-07 15:08:08.803272,-2.296554774401064,-0.0788136563236343,0.5639273323047896,-0.968941394399022
2023-12-07 15:08:08.946954,-2.0417052103179647,-0.0150655049597221,0.4512960670220337,-0.8072117615023444
2023-12-07 15:08:08.968171,-2.1283575259693794,-0.7612363855299116,1.0638687382928194,-1.506301086661361
2023-12-07 15:08:08.982365,-2.498564850819601,-0.1719315717264947,0.6811789611494925,-1.1308035987960374
2023-12-07 15:08:08.995385,-2.4336056822528023,-0.3265790066951186,0.78739975781174,-1.2411257572672338
2023-12-07 15:08:09.014902,-3.528615285308684,-0.8460076726517016,1.4584094519689164,-2.148829694859662
2023-12-07 15:08:09.020900,-0.3545552212507833,-0.2850701799644081,0.259630134848885,-0.3557083058777005
2023-12-07 15:08:09.063278,2.668398452835134,0.1792176695149605,-0.826438433377597,1.2897212117639805
2023-12-07 15:08:09.130463,-0.5855172970266996,-0.1322423227452961,0.1902538128261979,-0.3117716074846285
2023-12-07 15:08:09.169899,-0.3990426801371383,-0.2703487408613472,0.2548518194552008,-0.3580938208536208
2023-12-07 15:08:09.266904,0.4980564241211029,0.1534869935975987,-0.2957228250230265,0.385626510893596
2023-12-07 15:08:09.291995,-1.9506105857409584,0.0585754996712766,0.3582998219629779,-0.6951757361906057
2023-12-07 15:08:09.326511,0.8142461248635162,-0.0226246293570722,-0.2324190023561237,0.358851097755971
2023-12-07 15:08:09.347657,2.2594113921729018,0.5375772514005601,-1.0210030258871603,1.447096409846116
2023-12-07 15:08:09.481949,0.4633221726544358,0.3153604823683008,-0.4199611845110377,0.5184051452454016
2023-12-07 15:08:09.713069,1.909059884165608,0.2214307776820965,-0.6881632588401033,1.0238780888985362
2023-12-07 15:08:09.743092,0.930809287873898,0.9952836843436932,-1.072968095407573,1.315693654364437
2023-12-07 15:08:09.778346,0.4746441986939991,0.8782766116844734,-0.872553916329169,1.026158982132081
2023-12-07 15:08:09.890074,2.0209028933901383,0.6241910929978929,-1.036940567258945,1.4296981032217533
2023-12-07 15:08:09.924260,-0.4015330545954689,0.8614532278985063,-0.6528697607023922,0.6552103926187279
2023-12-07 15:08:09.980779,-0.5602238722771391,0.5031424427439358,-0.3306947504418774,0.2716158402920307
2023-12-07 15:08:09.994787,1.5032988614747984,0.4811514002049993,-0.8019462191055873,1.0924372596773717
2023-12-07 15:08:10.008303,0.8275599092031135,1.06098227160615,-1.1035990180227693,1.334234093517317
2023-12-07 15:08:10.212884,0.3401764454031389,0.9556290847919048,-0.9046704567546976,1.042086067370023
2023-12-07 15:08:10.250901,-0.4188013422408473,0.1698851740534645,-0.1001163658197163,0.0329986369854188
2023-12-07 15:08:10.283158,0.0226588727941177,-0.3207287329301318,0.1856059413849672,-0.2243884637620689
2023-12-07 15:08:10.344560,0.1207912348941574,-0.0634085759729764,0.1866148075939277,-0.6079158016086221
2023-12-07 15:08:10.381569,0.0080276061439127,-0.0243189404258577,-0.1892215361472011,0.3922656708084046
2023-12-07 15:08:10.413090,-0.0562971268762385,-0.0020154467646506,-0.403575484621765,0.962737723724762
2023-12-07 15:08:10.488543,0.0549756860710397,-0.0405753450308741,-0.0326152617925331,-0.0243933848615041
2023-12-07 15:08:10.549303,0.0943637510685983,-0.0542133808651702,0.0987772007540908,-0.373966303340048
2023-12-07 15:08:10.562292,0.0160694612062514,-0.0270546513029901,-0.1620459162010736,0.3202426265737064
2023-12-07 15:08:10.617089,-0.0251578107364534,-0.0127402391057761,-0.2992904055286689,0.6856108029496277
2023-12-07 15:08:10.695259,-0.0930522468150913,0.0108221428587601,-0.5253884244001941,1.2874588904332274
2023-12-07 15:08:10.707761,-0.0635469454761625,0.0006269303485859,-0.426813380281438,1.0253170473265705
2023-12-07 15:08:10.739769,0.1277680960072775,-0.0656524585071087,0.2111192166532242,-0.6721294520197956
2023-12-07 15:08:10.833829,0.067777951378396,-0.0448172286958695,0.0114580998763268,-0.1405620728304882
2023-12-07 15:08:11.334937,-0.1059333729546731,0.0154415879653595,-0.5672164044680483,1.3996530904300153
2023-12-07 15:08:11.350759,-0.0594315188976019,-0.0006283408095411,-0.4118697013426923,0.9865276592848456
2023-12-07 15:08:11.481357,-0.01959488861651,-0.0143837501288472,-0.2787091682141706,0.6324673296383443
2023-12-07 15:08:11.489362,0.0372544054186742,-0.0340321835016085,-0.0888143968798003,0.1274503064069303
2023-12-07 15:08:11.573885,0.1050875920996978,-0.0574839110112265,0.137719901149436,-0.4750479124633532
2023-12-07 15:08:11.586923,0.059312767762453,-0.0415514397953064,-0.0143831341046151,-0.0699000118624978
2023-12-07 15:08:11.614312,0.0479234899716491,-0.0375340991907726,-0.0518472649384454,0.03019567481961
2023-12-07 15:08:11.624553,-0.0111042172151761,-0.0169998033752649,-0.2480664581149117,0.5527901577719567
2023-12-07 15:08:11.642683,-0.0656421939661878,0.0019821196906168,-0.4292929449065921,1.0355086569381902
2023-12-07 15:08:11.668724,0.0160885067859651,-0.0262671650277478,-0.1562953686601693,0.3094760915952297
2023-12-07 15:08:11.687923,0.0755077775685589,-0.0467787804820522,0.0423634285200109,-0.2187056142023696
2023-12-07 15:08:11.743525,0.1247979651113881,-0.0637755680198186,0.2072879934311803,-0.6570928637021148
2023-12-07 15:08:11.805736,0.2469457252224536,-0.1060234043309516,0.6150803133008076,-1.7417743396080554
2023-12-07 15:08:11.834253,0.3382477358330118,-0.1375754642493591,0.9200870116396996,-2.552903631889547
2023-12-07 15:08:11.870509,0.1274581376871563,-0.0644093347066812,0.2182195786816736,-0.6845365201406725
2023-12-07 15:08:11.913365,-0.0071334747060427,-0.0176523214299329,-0.2296474302056749,0.5079093083413743
2023-12-07 15:08:11.998979,0.2689267854450681,-0.1132368770713678,0.6912519666190516,-1.9421622614705327
2023-12-07 15:08:12.070611,0.1779522562077492,-0.0815920509119903,0.3888141345719814,-1.136690678674877
2023-12-07 15:08:12.105879,-0.0019428022384509,-0.0191211872251073,-0.2099802767926344,0.4574589638644675
2023-12-07 15:08:12.246438,0.1015193093243719,-0.0548676852677576,0.1357050130728587,-0.4618055615699271
2023-12-07 15:08:12.322836,-0.1261133630545754,0.0241570406090362,-0.6221569582257116,1.555688924306079
2023-12-07 15:08:12.453686,-0.0374042390531393,-0.0064692619772714,-0.3255993712471277,0.7671984001222893
2023-12-07 15:08:12.485602,0.1902049062401717,-0.085239685313079,0.4339470295104134,-1.2533723905616772
2023-12-07 15:08:12.573334,-0.1485618958735922,0.0323168525298588,-0.69426978741295,1.7497563655451756
2023-12-07 15:08:12.752465,-0.1538917163087503,0.0342963971793019,-0.7110888096741038,1.7952693217839302
2023-12-07 15:08:12.809216,0.0918531139010298,-0.0507517185811074,0.1089679563759216,-0.3862808078550871
2023-12-07 15:08:12.869589,0.0612832803165458,-0.0400176092614437,0.0080614794245455,-0.1169639601447801
2023-12-07 15:08:12.985614,0.0255239671324924,-0.0274819989111288,-0.1101229605860505,0.1983479082185865
2023-12-07 15:08:13.051146,0.2988774133914555,-0.1220921582845372,0.8020131109804834,-2.228196448729411
2023-12-07 15:08:13.104605,0.7812190245843755,-0.2891417937491319,2.4107443375636133,-6.508493432676873
2023-12-07 15:08:13.185543,0.6353168857419133,-0.2384196929035462,1.9254969596312168,-5.216317395626472
2023-12-07 15:08:13.205671,0.2426778274778105,-0.1021683871137286,0.6178686774521983,-1.7356224361022072
2023-12-07 15:08:13.447559,0.0459746923331431,-0.0338325008392871,-0.0366707177201252,0.0070964917429926
2023-12-07 15:08:13.461579,-0.4148316736632723,0.1260521259822568,-1.571475879573302,4.092375486342184
2023-12-07 15:08:13.554626,-0.2530339304370957,0.0701243391345257,-1.0310680721298735,2.6551456249355634
2023-12-07 15:08:13.625675,0.3865108504779858,-0.1514038718799992,1.1017297139979083,-3.019713521413693
2023-12-07 15:08:13.663670,0.2260039755291824,-0.0956067974461687,0.5678929345497736,-1.5981607695429685
2023-12-07 15:08:13.772866,-0.0373833623374694,-0.0041463181123339,-0.3088415985939265,0.7359155120051475
2023-12-07 15:08:13.801874,0.2968660782762411,-0.1198441626575211,0.8064156147419046,-2.231052390640834
2023-12-07 15:08:13.862213,0.1849051623448454,-0.0808697008181606,0.4344226721858545,-1.24016725919488
2023-12-07 15:08:14.043247,-0.4048829310571852,0.1237363669812951,-1.5302029925830585,3.989012582570367
2023-12-07 15:08:14.071386,-0.1814280393365954,0.046447820593787,-0.7842031767093858,2.0047309929985566
2023-12-07 15:08:14.188527,0.0770221981128529,-0.0429699735021801,0.0784484298163841,-0.2899751292131016
2023-12-07 15:08:14.216087,-0.2635828477579354,0.0752650649309832,-1.0555995991798628,2.728907536472069
2023-12-07 15:08:14.229168,-0.2546844226482299,0.0723520980147728,-1.0247119852155608,2.6476898219963627
2023-12-07 15:08:14.254943,-0.2112493050217012,0.0574685592559568,-0.8787035207573911,2.2601199265959364
2023-12-07 15:08:14.287689,0.0334368235360006,-0.0271741582751962,-0.0619003637589376,0.0874477338142508
2023-12-07 15:08:14.334982,0.3350903380202636,-0.1315628500804151,0.9447857740687736,-2.590533505229071
2023-12-07 15:08:14.380993,-0.153509799230511,0.0379762276678659,-0.6825136809445186,1.7410053366056255
2023-12-07 15:08:14.542391,-0.3132168116777345,0.0935109821386198,-1.213577461380061,3.1552639740078057
2023-12-07 15:08:14.644518,0.1377969565124298,-0.0626491515667026,0.2909519004810113,-0.8475598820929786
2023-12-07 15:08:14.674850,0.1960247878924789,-0.0826568264840026,0.4862908766559821,-1.366387331996017
2023-12-07 15:08:14.820030,-0.3349428966128639,0.1015696794455549,-1.282212989383426,3.340930701833376
2023-12-07 15:08:14.829026,-0.6356616985171373,0.2059846810065172,-2.283274799379915,6.005945946997892
2023-12-07 15:08:14.878036,-0.0967677024773324,0.0193630925876719,-0.4858277688565151,1.2236183449991314
2023-12-07 15:08:14.898708,-0.0385800615722316,-0.0006304387377526,-0.2906212309600443,0.7051445503720778
2023-12-07 15:08:15.043219,0.000198419526073,-0.0138963481684113,-0.1601087782005194,0.3588323123112122
2023-12-07 15:08:15.104712,1.5469277634453735,-0.5498664675347781,4.996544196928251,-13.362959114809463
2023-12-07 15:08:15.136750,2.689865730803992,-0.9458700338296616,8.807319298620259,-23.503126275233583
2023-12-07 15:08:15.160742,2.527132529287571,-0.8892868352622649,8.266165150966199,-22.062018354545817
2023-12-07 15:08:15.215284,2.0537228245005186,-0.7250138809993878,6.689492297120883,-17.865209766333525
2023-12-07 15:08:15.306701,1.221094502296224,-0.4362250300105196,3.915504530184327,-10.482131869700355
2023-12-07 15:08:15.375376,0.2775060794002144,-0.1089747111544011,0.7716702114962358,-2.1148296115418725
2023-12-07 15:08:15.422983,-0.788737221522133,0.2607907547207548,-2.7809912015195297,7.3404307537089775
2023-12-07 15:08:15.451989,-0.1208113761964877,0.0294368014403163,-0.5535104140641186,1.413671646083284
2023-12-07 15:08:15.468995,2.821660088647435,-0.990348404118492,9.255237716238987,-24.688230291171163
2023-12-07 15:08:15.497999,2.7124141455164112,-0.9523122238037072,8.892314192853844,-23.72146445894981
2023-12-07 15:08:15.623017,-0.2658914422024895,0.0802302312867346,-1.0334661136138263,2.6938010644320305
2023-12-07 15:08:15.682346,-1.113982366415702,0.3743708458059366,-3.8590499744991766,10.21413949290237
2023-12-07 15:08:15.807132,-0.8709008629482606,0.29027471767993,-3.047664115554954,8.05582873109492
2023-12-07 15:08:15.931891,-1.1915655486226058,0.4015893536319788,-4.115309464486431,10.8979535411369
2023-12-07 15:08:15.948888,-1.0729556523650077,0.3606356478287794,-3.7188236551517937,9.843748068910438
2023-12-07 15:08:15.975155,-0.2890688842042447,0.0890738977093753,-1.104920378071083,2.8885793931070407
2023-12-07 15:08:16.019717,-0.2777438292512207,0.085304746589145,-1.066052267759877,2.786038213731598
2023-12-07 15:08:16.036799,-0.7678021475241257,0.2553290335750505,-2.6983569523081266,7.13078123518378
2023-12-07 15:08:16.134551,-0.5912724479724978,0.1942905085202569,-2.108876020458888,5.5629349970284245
2023-12-07 15:08:16.289631,-0.997824415099993,0.3353644725189735,-3.4628773433382034,9.167037082504958
2023-12-07 15:08:16.429385,-0.1306750600828471,0.0349305965037971,-0.5715283087218491,1.4734737226840888
2023-12-07 15:08:16.468392,0.4550734657817172,-0.1679631755676491,1.3818679415342014,-3.7240398022842096
2023-12-07 15:08:16.624694,-1.3945411428610648,0.4733151422803452,-4.78204923946004,12.680085164940817
2023-12-07 15:08:16.656722,0.8743374496848427,-0.3130102924418411,2.781342362694585,-7.446678962400833
2023-12-07 15:08:16.773460,2.686470047211189,-0.9410156511379058,8.82233731523359,-23.52208292336219
2023-12-07 15:08:16.847995,-1.5091993340271768,0.5134721357855057,-5.161259418976821,13.691591078778528
2023-12-07 15:08:16.851997,-2.438314964555947,0.8356653226039502,-8.25714388976868,21.93105922716981
2023-12-07 15:08:16.863000,-0.7659305320915576,0.2560926615131068,-2.682003488494521,7.095330836179226
2023-12-07 15:08:16.869000,-1.3816066225247985,0.4696318122894846,-4.7332065106130194,12.554677316628638
2023-12-07 15:08:16.964220,-0.9885977239846172,0.3335254968564942,-3.422389003704527,9.067056008762512
2023-12-07 15:08:17.081205,-0.678153414180975,0.2260355692829045,-2.3867895184775936,6.311822191433677
2023-12-07 15:08:17.093208,-1.2679932327845231,0.4306096452907209,-4.351945113209143,11.542127066551595
2023-12-07 15:08:17.100212,-1.0235813855111615,0.3460021947262174,-3.5364844898036485,9.372685912178117
2023-12-07 15:08:17.127731,-0.7561197542999861,0.2534016090507303,-2.6442207091152645,6.998838430022413
2023-12-07 15:08:17.223258,0.077840447591453,-0.0355688704256257,0.1362119426918717,-0.3997905590266561
2023-12-07 15:08:17.327439,0.9453349563576632,-0.3361668858983933,3.0283927223729794,-8.095821567643958
2023-12-07 15:08:17.352842,0.4113387930152197,-0.1509670465025143,1.2492472485948043,-3.3606209495847894
2023-12-07 15:08:17.649325,0.4681650909124353,-0.1705687241854629,1.4393431367986431,-3.865951600986501
2023-12-07 15:08:17.688569,0.6834399277528986,-0.2450973772164919,2.15753680852612,-5.776667732934095
2023-12-07 15:08:17.877131,-0.7000011211764662,0.2345362039602895,-2.4529673017500526,6.493232399530596
2023-12-07 15:08:17.879646,-0.9752493899113605,0.3300310378080948,-3.3697870564309995,8.933542732808966
2023-12-07 15:08:17.884667,0.1093992797574817,-0.0458616206388688,0.2460309356096837,-0.6883451367794797
2023-12-07 15:08:17.888672,-0.5486210375813837,0.1823065403545342,-1.9466592513163392,5.147245428619412
2023-12-07 15:08:17.896671,-2.120116004504756,0.7271102551304073,-7.184074824221559,19.085383666918165
2023-12-07 15:08:17.907869,-2.2346485734842045,0.7668803520296789,-7.565325296734003,20.10035756144507
2023-12-07 15:08:18.030843,-1.402023891656667,0.4783315224124828,-4.789639725704595,12.714125560254876
2023-12-07 15:08:18.053058,-0.9266414137032856,0.313610204597627,-3.204705106281888,8.49667613214182
2023-12-07 15:08:18.080253,-0.7387909227421013,0.2485525757838551,-2.5781709594951727,6.829682029373734
2023-12-07 15:08:18.117894,-0.2552292498729232,0.0809879062916439,-0.9660329054385688,2.539792553104696
2023-12-07 15:08:18.166670,0.137134143405164,-0.0549686693120444,0.3421030089468759,-0.9411153922346764
2023-12-07 15:08:18.323340,-0.3429629308937487,0.1114932258477619,-1.2577841686538656,3.316733100422569
2023-12-07 15:08:18.342853,-0.5514748146320119,0.1838108301465135,-1.9524822845388647,5.165684295238487
2023-12-07 15:08:18.518306,-0.3995241625935752,0.1311763948917689,-1.445754919507834,3.817398867381315
2023-12-07 15:08:18.554631,-1.2011210742911014,0.4090677320376801,-4.1173221317402895,10.927111213103798
2023-12-07 15:08:18.562804,-0.7512348980901515,0.2531508300697854,-2.617608413984694,6.936259250394694
2023-12-07 15:08:18.594734,-0.0888095809898847,0.0235567995336512,-0.4095122940298881,1.060247961463653
2023-12-07 15:08:18.743386,-1.3746759065321932,0.469298533404299,-4.695287181241484,12.465588241896128
2023-12-07 15:08:18.843255,0.2860896566553659,-0.1063606856452614,0.8403097832081129,-2.2655593062976567
2023-12-07 15:08:18.877848,3.3341236394134923,-1.162895725000017,10.999772654324255,-29.30168269486388
2023-12-07 15:08:18.925302,3.0514341817616986,-1.0649000491992686,10.057588432376368,-26.794321430586844
2023-12-07 15:08:19.064969,3.994141415435021,-1.3314694654693988,10.758804009862851,-27.207300252802323
2023-12-07 15:08:19.080113,3.8283747014042713,-1.2742847999043092,10.218853374395092,-25.77779586009413
2023-12-07 15:08:19.223522,1.9448998810628164,-0.6488948257718501,5.165752374644756,-13.05240826583018
2023-12-07 15:08:19.323414,1.969693313348079,-0.6536519443024206,5.079043613889556,-12.721828709507454
2023-12-07 15:08:19.344682,1.396733576147434,-0.4697951584966047,3.8282205151413504,-9.781500550965244
2023-12-07 15:08:19.369917,0.4250889013485676,-0.1492606984644904,1.3167985170774466,-3.5267122943324227
2023-12-07 15:08:19.409617,0.9954628213922015,-0.3344433404377245,2.663405592679489,-6.783413975079345
2023-12-07 15:08:19.570498,0.6753787889890557,-0.2279310354461932,1.7981325599238154,-4.599543582663625
2023-12-07 15:08:19.587746,-0.2032126221550585,0.0649317417691967,-0.6054376064399649,1.4874906027690096
2023-12-07 15:08:19.638834,0.9798006403021136,-0.3227857222830211,2.3474199214027047,-5.786891515332043
2023-12-07 15:08:19.681822,2.185831428525249,-0.718380691205249,5.37308705969613,-13.252722108226484
2023-12-07 15:08:19.710275,-0.3093551385489484,0.1006345826162676,-0.8935661101303493,2.215747370697734
2023-12-07 15:08:19.890813,-2.6398825933737635,0.8650907680705184,-6.722891946535587,16.58613273730987
2023-12-07 15:08:19.960971,-2.035542094819234,0.6668641932505336,-5.202376716445607,12.830902275554996
2023-12-07 15:08:19.974312,-1.8180319273468648,0.5866334541114173,-4.254059266976685,10.175710698596028
2023-12-07 15:08:19.979457,-1.83225896452041,0.5886952867196578,-4.16507604743203,9.858609259807858
2023-12-07 15:08:20.007707,-1.8395357489757271,0.5993935408682192,-4.544218346210255,11.076852468647028
2023-12-07 15:08:20.016528,-2.0192338803473846,0.6567040709511289,-4.911731824590771,11.9185708392252
2023-12-07 15:08:20.038533,-2.259927793255045,0.7300605580804619,-5.255021474903206,12.561724333737413
2023-12-07 15:08:20.048683,-2.974029604296242,0.9625834311469308,-6.956059642247379,16.68833381020342
2023-12-07 15:08:20.118720,-1.058046349499758,0.3409273915131611,-2.4503590778317044,5.806322592226618
2023-12-07 15:08:20.203413,1.2618733255515135,-0.4093249110263045,2.893661385877817,-7.007163234121195
2023-12-07 15:08:20.391047,-0.4144541687078653,0.1334410869523965,-0.9756403600059468,2.277258699236413
2023-12-07 15:08:20.543570,-1.47033317021153,0.4752197686137387,-3.4033835725637114,8.0946733728625
2023-12-07 15:08:20.668655,-0.2779093730558543,0.0985542422571841,-1.0481918150860687,2.7816386510064164
2023-12-07 15:08:20.694941,-0.7397606729643005,0.242989159434174,-1.87637291626841,4.566541745799093
2023-12-07 15:08:20.718743,-0.77521156047483,0.2413398308356274,-1.359404693949022,2.8166067332279567
2023-12-07 15:08:20.724789,0.5790806088937582,-0.1798498593631619,1.020939764451121,-2.260173763066786
2023-12-07 15:08:20.752410,0.3201138965009392,-0.0876714926324667,0.0658144814116663,0.3359663493397038
2023-12-07 15:08:20.792431,-0.2210797440782186,0.0767838677853846,-0.6917130376912101,1.735353093206821
2023-12-07 15:08:20.970218,-1.211502128199821,0.4041781743602327,-3.2676933513209128,8.16325679222002
2023-12-07 15:08:21.014735,-0.0653328554481336,0.0340242733657113,-0.6393298392663853,1.8714206568144232
2023-12-07 15:08:21.052811,5.8927302391352026,-1.8780542361163344,12.415828537158134,-28.86043500356369
2023-12-07 15:08:21.248087,6.310795316103823,-2.000549079361115,12.828627690463763,-29.380767800813
2023-12-07 15:08:21.257082,2.389327779871947,-0.7588983478637958,5.0152706972754,-11.686468183121256
2023-12-07 15:08:21.326693,4.238652274991149,-1.3391375125809035,8.490551904875955,-19.34988320474041
2023-12-07 15:08:21.339836,4.895292262837416,-1.526146238593661,8.890046824396975,-19.3582630867268
2023-12-07 15:08:21.383628,2.0465351824491607,-0.6362493849431561,3.759087154567167,-8.275929777992426
2023-12-07 15:08:21.595041,1.281017329756837,-0.4024664625843313,2.633026671838809,-6.1192478280077225
2023-12-07 15:08:21.611327,0.6031677200785974,-0.1871174095362922,1.2671928794048215,-3.010928324801769
2023-12-07 15:08:21.660679,0.6386826880428997,-0.199863114639271,1.4253323888205092,-3.4549762148136063
2023-12-07 15:08:21.882190,3.018110664246992,-0.9310133413581428,5.207357741684743,-11.074050646300744
2023-12-07 15:08:21.889443,2.829290801979849,-0.8639437314912061,4.52697905537125,-9.23312943883754
2023-12-07 15:08:21.904661,-0.6172596671376126,0.1952364344207391,-0.9053691915069771,1.654521848225078
2023-12-07 15:08:21.916786,-0.8859739187295435,0.2650253919424532,-0.7393202480005763,0.5871039575372777
2023-12-07 15:08:21.947576,0.4795878738292546,-0.1472411659014491,1.1142673789550908,-2.755188263597377
2023-12-07 15:08:21.969581,-0.4080123739609073,0.1416018332633905,-0.9835789015128354,2.3205623085885265
2023-12-07 15:08:22.000057,0.217213660517494,-0.0584128215129238,0.3788094054722437,-0.8794638496693794
2023-12-07 15:08:22.059318,0.9240269570242992,-0.2744807436232805,1.468895294195358,-3.0340613459123444
2023-12-07 15:08:22.214186,-0.5560228949854539,0.1837381838680472,-1.0004565609966305,2.085412206738832
2023-12-07 15:08:22.262602,-1.2055713336512195,0.3784570485963394,-1.78700623800684,3.366350641944384
2023-12-07 15:08:22.435013,-0.3634433410087538,0.1318685123497952,-0.9748137079900856,2.380910534945794
2023-12-07 15:08:22.441010,0.5680401795420992,-0.1525253875251748,0.4396216504770404,-0.3866285266859954
2023-12-07 15:08:22.481327,-1.0440093716346786,0.3315438366153618,-1.582543497173934,3.019912971438982
2023-12-07 15:08:22.668854,-1.9417848947200944,0.6117560513064912,-3.1712297644925203,6.420622051735099
2023-12-07 15:08:22.703144,0.4737881370043713,-0.1205796166084588,0.2294748265783563,0.1121111683956356
2023-12-07 15:08:22.716306,-0.3156567935083624,0.1221459776244596,-1.000714593965197,2.560318071491053
2023-12-07 15:08:22.738126,-2.6214463224263787,0.82168125557529,-4.221093490001132,8.498879875417582
2023-12-07 15:08:22.760457,-2.8784472638700063,0.8913450507938692,-4.188478902229586,7.888244520801402
2023-12-07 15:08:22.890450,-2.333563620837184,0.7259146339306539,-3.3917660006074555,6.369183094744741
2023-12-07 15:08:22.932263,1.4796369292195215,-0.4264323830476349,1.797898418703781,-3.008786255848288
2023-12-07 15:08:22.962766,0.8300435599304831,-0.2266566271839349,0.7881688297440649,-1.002453372314145
2023-12-07 15:08:22.984263,-4.844890659970445,1.490074430047848,-6.952788530741789,13.011802878522593
2023-12-07 15:08:23.000605,-3.4256587817614355,1.0595869337909465,-4.93459886033671,9.23992537532795
2023-12-07 15:08:23.078467,-2.773194077491569,0.8679276529156004,-4.271680210529644,8.367125227559802
2023-12-07 15:08:23.112148,-3.057559150830621,0.9463117464572836,-4.295896223388003,7.887468111091863
2023-12-07 15:08:23.127541,4.603133192469024,-1.378353503997075,6.533297901469669,-12.263704503044185
2023-12-07 15:08:23.376978,6.389546981266689,-1.910986147228333,8.656196662746027,-15.65460098984117
2023-12-07 15:08:23.478266,2.4783237456600835,-0.7252750900891458,3.21635804317762,-5.655438472315847
2023-12-07 15:08:23.521296,0.5329272429841986,-0.1436051028311009,0.8831601649651426,-1.892724972960528
2023-12-07 15:08:23.604414,-6.398079213759638,1.940044347327734,-7.995350840074768,13.351631637495103
2023-12-07 15:08:23.640436,-9.749049446030158,2.955259522077887,-12.623643886065452,21.81343537537336
2023-12-07 15:08:23.687446,-3.6735652686235056,1.1367154456189208,-5.147576270262888,9.447675525932452
2023-12-07 15:08:23.854341,1.4267948456167472,-0.3934185785270488,1.286825199716776,-1.4477371605211309
2023-12-07 15:08:23.870774,1.8034233577534355,-0.5039482509216041,1.6746578566372068,-1.9682472905049389
2023-12-07 15:08:23.880905,0.0195588402517791,0.0261809994944871,-0.3190243999643536,1.0081705023073568
2023-12-07 15:08:23.890037,-2.6025442749443166,0.8072602973304931,-3.342965550287891,5.686773185610596
2023-12-07 15:08:23.917263,-6.174754898802538,1.88192096664964,-7.941666662121294,13.617738188796066
2023-12-07 15:08:23.960096,-2.830605227671997,0.8766234603083256,-3.624662681469574,6.154942407277714
2023-12-07 15:08:23.976099,5.963499037040507,-1.7614712581545358,7.4430022907718385,-12.544772494824754
2023-12-07 15:08:24.026213,7.347686551787867,-2.1734111780654226,9.057640731275743,-15.073736368541152
2023-12-07 15:08:24.036301,7.497350536424229,-2.212518266037238,9.010513772998804,-14.626269387734634
2023-12-07 15:08:24.472449,6.41778239254312,-1.887073793769444,7.606332213014136,-12.182466386926238
2023-12-07 15:08:24.569806,-0.545436940775405,0.1893494749618055,-0.5628286616465842,0.6927743534690792
2023-12-07 15:08:24.606997,-1.5555380235511258,0.4933060079992947,-1.8514038040003185,2.897253927224035
2023-12-07 15:08:24.622622,-0.5753160499481744,0.2009954915916437,-0.6762024246096019,1.0030943246263548
2023-12-07 15:08:24.714816,-3.1594456655876666,0.964556501145516,-3.3820120170764394,4.722155935920372
2023-12-07 15:08:24.760861,-2.76384886528582,0.8476010793925767,-2.940609547059924,4.064742876124276
2023-12-07 15:08:24.806857,-2.267716403655628,0.7032949036811247,-2.498325910432896,3.6019693370874872
2023-12-07 15:08:24.835962,-3.4491468718682,1.0561191581176794,-3.891041712086746,5.808364726625266
2023-12-07 15:08:24.884218,-3.7276445013390775,1.1372414812446603,-4.112885275356893,5.982588313572404
2023-12-07 15:08:24.913228,-6.343554739535701,1.9101382232641608,-6.851477784319111,9.745760259137224
2023-12-07 15:08:25.006952,-10.603697160582332,3.1754974004424312,-11.620621101108355,16.879238042708927
2023-12-07 15:08:25.113119,-3.4351018335117685,1.0497255323657388,-3.698364832080331,5.210514426456951
2023-12-07 15:08:25.139646,8.781754761744809,-2.57292473206662,9.783357855529063,-14.61219225738524
2023-12-07 15:08:25.217278,4.934301851990082,-1.4295305693914089,5.449589703400555,-8.08320427485038
2023-12-07 15:08:25.329907,-2.7062797433887167,0.8336909787934366,-2.844509821393061,3.867397366148857
2023-12-07 15:08:25.433820,-0.5864448736856163,0.2024562088009288,-0.3734692782371978,-0.0002253858707648
2023-12-07 15:08:25.447851,-0.0056637399581775,0.032009620966283,0.2044958675392105,-0.7377908014498524
2023-12-07 15:08:25.475428,-2.343227313818631,0.7268288049810336,-2.4292667367244243,3.231411512494872
2023-12-07 15:08:25.539983,1.4612037233748478,-0.3969927554024415,1.587641666219752,-2.351733595844826
2023-12-07 15:08:25.621503,6.0327444663807634,-1.7454797908369457,6.3245584291949,-8.768309676356266
2023-12-07 15:08:25.675501,0.4282959526122462,-0.0890389669208405,0.4055590102593759,-0.5381276465819446
2023-12-07 15:08:25.688558,-1.5829963391588295,0.5023005822877488,-1.5708210276770966,1.9351488696141763
2023-12-07 15:08:25.702773,3.040528067922443,-0.8603973429557604,3.1683172029878715,-4.386540057950156
2023-12-07 15:08:25.757855,-2.016037130460892,0.6370883278756663,-2.304605593121731,3.4699579308210127
2023-12-07 15:08:25.800418,-4.179366540293145,1.274095395915814,-4.4760579788012445,6.27863306961822
2023-12-07 15:08:25.866071,-1.5463352106176511,0.492568789633041,-1.5282538690659586,1.8693942850291072
2023-12-07 15:08:25.893291,-1.201300879499589,0.3907941365979051,-1.160052141039006,1.350492256721762
2023-12-07 15:08:25.925362,3.5967701294982164,-1.0192951978391074,3.5743907966839337,-4.613057518939589
2023-12-07 15:08:26.007031,-4.325617436531358,1.3191199755101013,-4.664404023867479,6.604072342866608
2023-12-07 15:08:26.070414,-14.047256160348605,4.184106075692159,-14.576675928064558,19.72626303533724
2023-12-07 15:08:26.404302,-3.393689611492411,1.0431767243769576,-3.635184149161022,5.089544307650527
2023-12-07 15:08:26.496757,0.620206029886581,-0.1416785305303508,0.557789470378348,-0.6544880094460344
2023-12-07 15:08:26.545100,-4.371333115562469,1.3281083001233187,-4.473547408498545,5.894287754856759
2023-12-07 15:08:26.562101,0.0685835063836206,0.020883206529052,0.0115375793854307,0.037648448365171
2023-12-07 15:08:26.651678,2.15473510888968,-0.5939556451455885,2.1503168430122184,-2.816211102694171
2023-12-07 15:08:26.722159,-3.972569269685858,1.2111254978472823,-4.067907112906475,5.359359744885646
2023-12-07 15:08:26.740685,-2.530730175266012,0.7866943718132077,-2.611415024295934,3.457538175011969
2023-12-07 15:08:26.879857,7.646744709299616,-2.2109153974936104,7.705884235492701,-10.085538013359358
2023-12-07 15:08:26.907253,5.88069223881582,-1.689881731468618,5.882868516847707,-7.629104484277375
2023-12-07 15:08:27.019465,0.2233401995787558,-0.0244163029069549,0.191814898945237,-0.2439292589306711
2023-12-07 15:08:27.127955,5.898665204398716,-1.6955798209052484,5.927542643213636,-7.738918467585102
2023-12-07 15:08:27.169346,4.54864484581442,-1.296368938299585,4.49251077363901,-5.726365042102111
2023-12-07 15:08:27.211378,-2.325736158974237,0.7265887479207738,-2.3904900358633125,3.142406050079428
2023-12-07 15:08:27.354982,-0.5979540278386678,0.2162998812598631,-0.5755339242134508,0.6370678977573535
2023-12-07 15:08:27.366092,-2.4800884772369387,0.7700559798870968,-2.454413360390617,3.04700219015194
2023-12-07 15:08:27.537370,-6.685880561990302,2.0074838308963816,-6.655944077540003,8.441972503334815
2023-12-07 15:08:27.606114,-2.138013588415704,0.530350136595619,-1.0616124760753445,1.5840405747078836
2023-12-07 15:08:27.675339,1.3843612288389175,-0.2699714728020314,-0.5245269120411453,-0.1007735802055558
2023-12-07 15:08:27.686348,-3.418100934686852,0.7277741287445606,-3.2922499340349844,3.7441072858012223
2023-12-07 15:08:27.724798,-1.5316011309754776,0.1753901613448668,-2.0953229596071306,2.030632894903581
2023-12-07 15:08:27.741123,1.2324234947620136,-0.6294284966911434,-2.666863141195725,1.3687044229556613
2023-12-07 15:08:27.787601,2.173271912648488,-0.7740442643844065,-1.9689705230646308,0.5287823488392628
2023-12-07 15:08:27.808733,7.2469026775599374,-1.9750668091979573,1.2257842895125597,-3.854298840399552
2023-12-07 15:08:27.830350,12.387069505030826,-3.2494340560955672,3.2463104076505185,-7.371396538368888
2023-12-07 15:08:27.876362,13.931013135299214,-3.34195475235767,4.811537599410968,-8.978236111290576
2023-12-07 15:08:28.008184,6.7345793157026215,-2.300418639959098,-2.3684783286864683,-1.13814850802877
2023-12-07 15:08:28.019218,0.1700170775149466,-1.9353396379889287,-11.009787805146612,7.250257303297536
2023-12-07 15:08:28.076907,3.886008536588069,-3.0392689116778326,-10.527872387211175,5.352321098162974
2023-12-07 15:08:28.232030,7.481067427932684,-4.27287625002785,-12.336651407120543,5.20180207427863
2023-12-07 15:08:28.254467,11.407738335406544,-5.639541495669357,-13.601151870647412,4.459101343682459
2023-12-07 15:08:28.386048,13.81976911591332,-5.955958397987791,-10.231558762367731,1.0909167576396948
2023-12-07 15:08:28.407849,8.82163990369139,-4.67969379501382,-10.87086517350437,3.4861392331711474
2023-12-07 15:08:28.486603,8.98951744061426,-4.589920533030575,-11.207771855675723,3.786310007439616
2023-12-07 15:08:28.543257,17.246101019326723,-6.023362414011201,-6.852871641916222,-2.2994802010301547
2023-12-07 15:08:28.667577,21.09348325708533,-6.646791261199177,-4.429929490850645,-5.415375823191698
2023-12-07 15:08:28.679571,16.221484984826635,-5.951823612895377,-7.888376171583514,-1.227781409085477
2023-12-07 15:08:28.693567,12.38660299389389,-4.989067278925141,-8.49119449171381,0.6873008933082355
2023-12-07 15:08:28.740135,12.230560447230271,-3.954349633797726,-4.275526393749598,-1.879151239173881
2023-12-07 15:08:28.765208,10.30605585913852,-2.9136648756162487,-1.6791846678635196,-2.815034777776662
2023-12-07 15:08:28.851026,13.010652718480346,-2.356479954813125,4.760937159628602,-8.044167893709
2023-12-07 15:08:29.027112,13.017829155532018,-1.479669610561978,7.8429686755428465,-9.85666985398356
2023-12-07 15:08:29.046159,5.318639687589061,0.0914494568377969,4.894990554705902,-4.894751557627745
2023-12-07 15:08:29.404713,0.6787333946690657,1.7374794186256068,7.640421979385918,-4.987072103309947
2023-12-07 15:08:29.437657,-8.555640386125198,3.051698547388928,5.445720457078741,-0.5127105083534426
2023-12-07 15:08:29.474955,-8.872150216870196,2.9480829802831128,5.195481271372299,-0.3276778185290256
2023-12-07 15:08:29.611840,6.033383753131547,2.252939129945669,16.00947087531078,-12.287599309031524
2023-12-07 15:08:29.619990,4.524045747863934,2.8080574647191345,17.165813505583774,-12.512048727730912
2023-12-07 15:08:29.651330,-1.3813959219164331,3.447376465916813,14.787031724202114,-9.022067574932784
2023-12-07 15:08:29.665429,-2.6965315795717544,3.66823599228893,14.231883536143332,-8.167582910627491
2023-12-07 15:08:29.690818,-13.99324073533165,4.288631755932773,8.273515251234558,-0.8105381931842709
2023-12-07 15:08:29.712191,-12.830285590468968,4.183423637248052,9.025280242309746,-1.707174318556162
2023-12-07 15:08:29.743709,-2.843774706697448,3.187697130190547,10.750612900843096,-5.722855167511991
2023-12-07 15:08:29.758709,-2.3512093904127163,2.9341462665006404,9.904104117920824,-5.329099308129084
2023-12-07 15:08:29.833453,0.7514921686837183,3.031760250241834,13.451251168323536,-8.671544360564827
2023-12-07 15:08:29.861776,2.644966160581204,2.7183026960475085,11.586500012103167,-7.783262053305387
2023-12-07 15:08:29.917130,-8.393011251739063,3.6810151349215214,9.338592672333734,-3.1730124907137824
2023-12-07 15:08:30.042906,-22.54622847507412,5.343555903105435,13.378136194201852,-2.4452003018467767
2023-12-07 15:08:30.085473,-17.65527524700162,5.233044196476443,15.948100085545835,-5.507660575202627
2023-12-07 15:08:30.168932,-6.406215249981127,4.515154212056996,15.96933415379269,-8.2133802655713
2023-12-07 15:08:30.215199,-15.2073531235288,4.658487819777594,14.199629620610324,-5.007008748325936
2023-12-07 15:08:30.316911,-18.40367174352115,4.581780713530123,12.636265832521524,-3.204750452577362
2023-12-07 15:08:30.492706,-7.541101024609593,3.343279906548841,9.738182838785526,-3.895832680118304
2023-12-07 15:08:30.821191,-4.215261232366364,1.300716388523152,2.0194699003381427,0.1107320683037298
2023-12-07 15:08:30.862175,-5.4171500019477445,-0.3547716147427175,-5.848918996115103,5.389560959757336
2023-12-07 15:08:30.877407,-15.262299734396729,0.011879318874756,-6.209142097050115,7.840371731027998
2023-12-07 15:08:30.893151,-18.752405966341367,-0.4503654547634219,-6.714089267320954,8.580374031155447
2023-12-07 15:08:30.908442,3.171615614965704,-7.990083930684843,-29.65774939740187,17.104206486837448
2023-12-07 15:08:30.962056,21.677017127923847,-15.864647766502404,-56.47405178265692,29.11853411199245
2023-12-07 15:08:31.008372,23.73145243936416,-16.778708861105105,-60.32704291592318,31.11912858510147
2023-12-07 15:08:31.050911,24.011562333105907,-19.694923312877386,-65.3760768601892,32.96234956837192
2023-12-07 15:08:31.225742,25.72812402404628,-20.55639132111964,-64.58235923500992,31.378514739443823
2023-12-07 15:08:31.254512,17.687654924324107,-11.990021657727734,-40.38844830201231,19.928456373074408
2023-12-07 15:08:31.307894,3.0366956665268927,-8.25155954621777,-30.17378989787161,17.353950634367532
2023-12-07 15:08:31.345799,8.111448441286813,-8.322972765407652,-28.265963751332144,14.809893031769182
2023-12-07 15:08:31.356938,17.342765931902324,-3.3715036559981244,-12.225080458040216,3.882666210071625
2023-12-07 15:08:31.442879,10.35621346575057,-3.2265863564503734,-11.796356062717644,4.995542467408308
2023-12-07 15:08:31.473895,4.315352407679455,-3.4773093290114816,-11.788479134453116,5.973691767822095
2023-12-07 15:08:31.541637,-0.2580806305509569,2.152072632948314,7.713093461921074,-4.546545477632136
2023-12-07 15:08:31.572419,4.182979711470018,2.557125693020306,9.664107476987882,-6.657845938301187
2023-12-07 15:08:31.603479,7.416173996658808,4.565002292642785,14.297021685618269,-9.50467831640705
2023-12-07 15:08:31.876872,-13.224075708251524,16.687868158247532,52.7170619435136,-27.24067801502852
2023-12-07 15:08:31.966345,-18.289296017524343,21.36651291686256,67.72832143259863,-34.78989547266472
2023-12-07 15:08:31.989625,-25.234680311452728,20.33715520710697,64.53368454928732,-31.659169049754546
2023-12-07 15:08:32.019960,-27.983863215601765,20.061146451099404,63.54921992802365,-30.54673084543816
2023-12-07 15:08:32.074545,-15.986356219591174,19.39758156793937,58.0549917858785,-28.98030660933937
2023-12-07 15:08:32.102104,-2.430794637743548,22.963485415052222,63.3665401811511,-33.229399208559194
2023-12-07 15:08:32.125874,-7.530731598969641,20.228733983440865,57.190189658826405,-29.322420912236343
2023-12-07 15:08:32.250675,-20.629862333883068,9.430532560914134,31.98795337827546,-14.60831636941342
2023-12-07 15:08:32.277875,-15.091215766100005,7.640711330382964,26.51978340543071,-12.631700717607831
2023-12-07 15:08:32.329359,-12.052660611081686,10.96469476394194,35.09310686007203,-17.61576868995922
2023-12-07 15:08:32.393012,-18.74531749559976,11.67315221015162,38.62100683012957,-18.61133405207128
2023-12-07 15:08:32.414080,-15.210577749046886,13.771382514471894,42.00261523605866,-20.45792533316313
2023-12-07 15:08:32.547192,-14.004043536101094,12.86172831185618,38.86353803611597,-18.857155039506235
2023-12-07 15:08:32.709181,-23.21117550054208,11.01534298102912,39.39684723527886,-18.83994090696137
2023-12-07 15:08:32.722179,-22.58369193823671,12.445399741259145,43.68970330462295,-21.332439593818425
2023-12-07 15:08:32.971164,-13.067079048582633,10.620822997232388,33.27460187091244,-16.222401741866324
2023-12-07 15:08:33.175834,-24.141539971090506,4.94917077165709,23.00980893186024,-10.043627359953769
2023-12-07 15:08:33.229963,-27.98474953934518,5.712575319113321,27.279633704157284,-12.137905400515216
2023-12-07 15:08:33.279988,-0.5011805752556112,11.345290005666191,28.93495141295452,-14.676454808511268
2023-12-07 15:08:33.328094,-9.523445191355831,6.135120459515851,19.28436931251933,-9.047054771642353
2023-12-07 15:08:33.348892,-36.177520377155645,0.7940681159964201,18.5713408108443,-7.204218947907833
2023-12-07 15:08:33.470224,-12.742661198795744,5.570743459796931,20.0410165262033,-9.433947297869263
2023-12-07 15:08:33.509689,3.807889905189478,3.363743883372608,6.568627905484199,-3.531205050823754
2023-12-07 15:08:33.541442,-6.929948222015159,1.4493272810123472,6.757830569972199,-2.994933268292292
2023-12-07 15:08:33.612396,-2.2796570892245382,6.714931014032623,15.983916835936029,-7.403000122801719
2023-12-07 15:08:33.723782,0.030264141489794,6.399243793366794,12.249641148311309,-5.112981701291883
2023-12-07 15:08:33.778534,-15.427905355601316,4.80368410200207,16.279555548771533,-6.483497271515611
2023-12-07 15:08:33.805685,-32.02667673668246,4.465177748043337,24.740085186083096,-10.240535896614004
2023-12-07 15:08:33.826996,-34.05177525930316,4.643529978329526,26.0886937320661,-10.790662131564012
2023-12-07 15:08:33.840139,-23.26861671032469,5.360748437864048,21.66870037881153,-8.843482187850887
2023-12-07 15:08:33.940629,-14.33743702579212,4.0794405023646885,13.878395449094413,-5.310567108156793
2023-12-07 15:08:33.984641,-16.053553392265144,5.69409990904485,19.89567296754808,-8.586060566609152
2023-12-07 15:08:34.299714,-23.20406459458451,7.564508597788073,29.900402259717303,-13.79270887774726
2023-12-07 15:08:34.392418,-14.78480954366919,8.707953453886045,28.26796665418025,-13.29338464527757
2023-12-07 15:08:34.410421,-10.05103931581671,6.740346630282472,21.09896515765276,-9.940555272915637
2023-12-07 15:08:34.482838,-22.477629502255645,0.1270201691121746,13.469113005770687,-6.273664113377991
2023-12-07 15:08:34.550444,-9.57305788289513,2.727518272082136,12.321175824741678,-5.969694431335677
2023-12-07 15:08:34.569500,6.88623219379882,2.115914847886529,1.87029661566604,-1.292907698198401
2023-12-07 15:08:34.597929,-0.8455137838760529,-9.10654069898337,-18.537817107037952,8.27396260952705
2023-12-07 15:08:34.710898,0.5813332385857106,-11.045141041795734,-23.767350277329264,10.746432525883622
2023-12-07 15:08:34.725234,3.4944277881273087,-13.477897543426154,-31.19184499492603,14.316554832249585
2023-12-07 15:08:34.755353,5.793111667281162,-19.598300543324225,-46.78721038342427,21.821152471950143
2023-12-07 15:08:34.787110,12.336316893876194,-19.1090845541115,-50.00982967425888,23.47081391826644
2023-12-07 15:08:34.810133,11.629057911874812,-21.62722287486673,-55.19680344238165,25.90174300376665
2023-12-07 15:08:35.358009,45.915778824107306,-13.808178369698744,-59.36782118534675,28.25810614974764
2023-12-07 15:08:35.397013,18.80023345358696,-12.110598964815155,-38.066187443556586,17.81196341436205
2023-12-07 15:08:35.525619,32.48019619616591,-8.66361102101004,-39.50104939825376,18.80640143576873
2023-12-07 15:08:35.766466,-2.961051361303827,-14.876065790301634,-32.15349367430624,15.316649056091196
2023-12-07 15:08:35.808031,-4.580575187090921,-16.723821326323016,-34.458900857250555,16.121619010385317
2023-12-07 15:08:35.862569,-11.96485071377836,-20.707552602067665,-37.82249121561718,17.332682450579373
2023-12-07 15:08:36.029373,-26.21094319582972,-12.214463009175132,-9.07465597817597,3.412069134572305
2023-12-07 15:08:36.057098,-9.0768988381533,-3.0066627689204792,-0.4767780065267045,-0.0532343682974965
2023-12-07 15:08:36.127768,-9.262876721954202,-0.980003483547208,3.471339383989797,-1.684041247537605
2023-12-07 15:08:36.168459,-17.59289730093363,-0.491617151845677,11.240261276081169,-5.804262845880017
2023-12-07 15:08:36.181499,-23.855786577811244,-1.2309456200134408,14.06150432612304,-7.344013018030606
2023-12-07 15:08:36.221144,-13.143741165179724,2.094072819229496,13.54400989827464,-6.6607477014736505
2023-12-07 15:08:36.384900,-10.496703583358158,6.869260791910518,21.687936466945672,-10.230994011531484
2023-12-07 15:08:36.557234,-46.573367006767306,13.415658114370505,60.55391934728273,-29.31570306373221
2023-12-07 15:08:36.681437,-16.659368715974622,19.948595423623647,53.36108850353144,-24.798981756257987
2023-12-07 15:08:36.757598,-33.4987609202606,3.894337982682768,31.5367765326826,-15.625178722631466
2023-12-07 15:08:36.772599,-10.87908961607921,6.5443747747211685,21.25691337909527,-10.070325285173404
2023-12-07 15:08:36.876743,5.659108249085697,7.889168768581401,12.512183731370694,-5.44236047919764
2023-12-07 15:08:36.926654,-14.745635109585178,-4.099325214511526,1.7048357411463089,-1.3759792698448627
2023-12-07 15:08:36.984438,-10.07508797986601,-6.871799882532111,-7.342387601142945,2.9213535725886475
2023-12-07 15:08:37.025690,-13.097815890839591,-3.9250525403184966,0.9300333473748102,-0.9469226920034572
2023-12-07 15:08:37.060469,-20.08054150148612,-1.2030654938443777,11.483724822734075,-6.02378188010801
2023-12-07 15:08:37.169227,-5.290711319940296,5.090901559417517,14.325479821352989,-6.695220509656364
2023-12-07 15:08:37.576923,-17.19131403153764,2.1548557950841247,16.54081258956923,-8.142713135303847
2023-12-07 15:08:37.600000,-17.36553568948509,0.859046543938694,13.914874426640711,-6.99875722641536
2023-12-07 15:08:37.807379,22.631126892303044,11.68605026221404,8.52632320243371,-3.01607673034576
2023-12-07 15:08:37.827818,15.082200625711112,4.780706864396577,-0.5969920902990621,0.8466739238813986
2023-12-07 15:08:37.872485,-9.284736363506514,-8.786696121824887,-11.861529025884243,5.033047502875624
2023-12-07 15:08:37.946050,2.4867505482454435,-4.590579040758615,-11.331988119687349,5.251756593914442
2023-12-07 15:08:38.000501,-26.1260475294561,-10.801013772483362,-4.264278027292019,0.9510560471877844
2023-12-07 15:08:38.030525,-40.27970488919742,-17.201281820622842,-7.691732540683433,1.9919734672995089
2023-12-07 15:08:38.110722,3.516342222749523,-0.5073173442006487,-3.53722173862771,1.7411537317735153
2023-12-07 15:08:38.258867,-6.45175838961708,9.407602935857073,24.11739968095821,-11.22186799201678
2023-12-07 15:08:38.266067,-29.477233374220127,6.373881873420058,33.99670080229018,-16.49706184378995
2023-12-07 15:08:38.307608,-21.450794377959905,3.0747101394594694,21.50766115841113,-10.50172670865698
2023-12-07 15:08:38.367666,-22.872620344786792,1.1467072374879193,18.42927019708532,-9.206002453413072
2023-12-07 15:08:38.377661,3.2681211936783887,7.258311886996325,12.82859244580027,-5.722727703845325
2023-12-07 15:08:38.394824,-1.771617571650651,12.072329947650084,26.338651416842144,-12.118057609695883
2023-12-07 15:08:38.488824,-56.355021259729455,9.28191597106568,58.83435358659658,-28.85446625528936
2023-12-07 15:08:38.578415,-46.434293920572216,12.82117812897729,59.374427409728085,-28.62711290558469
2023-12-07 15:08:38.613798,5.750538528650845,27.54175792256853,53.36003135617362,-24.111876764425297
2023-12-07 15:08:38.627809,11.90121513288858,26.51320092344709,46.83352579050387,-20.98511928416019
2023-12-07 15:08:38.675635,-17.174855173925813,1.5751607991121117,15.420656516361197,-7.541570862068189
2023-12-07 15:08:38.751600,-8.21462966686002,-8.205729657905492,-11.27534896056552,4.920502555840782
2023-12-07 15:08:38.824130,24.857541800487045,-8.989878086347497,-36.23770522695073,17.351079774758695
2023-12-07 15:08:38.876054,33.85034049482148,-13.18572923645785,-51.289141364661496,24.533324103974408
2023-12-07 15:08:39.147060,36.38125254441641,-5.6994105119565415,-37.53731476798941,18.280848218618257
2023-12-07 15:08:39.181494,3.690676649991455,-11.879413174683393,-27.304298288689232,12.62819637310398
2023-12-07 15:08:39.216636,1.3735515653515984,-5.858780061367253,-13.180360705805574,6.058758612076724
2023-12-07 15:08:39.475987,51.109099050056,22.104199275754315,9.693121689638568,-3.101468059652125
2023-12-07 15:08:39.543017,18.11791758343909,12.462969705586488,12.996367068240287,-5.534603748910817
2023-12-07 15:08:39.552149,1.104597557720853,4.101261781750987,7.680934001519328,-3.545343804542364
2023-12-07 15:08:39.564817,42.44760480441497,16.358562930707347,3.84407692469422,-0.6971342847882585
2023-12-07 15:08:39.609000,23.510205996232106,9.522180535303743,3.0714678165553724,-0.8333374488242199
2023-12-07 15:08:39.634680,17.322501059888065,8.97938207688371,6.299982600847556,-2.507299965881777
2023-12-07 15:08:39.655573,20.864698747102462,8.514960177848483,2.8161355451560515,-0.8241918314284371
2023-12-07 15:08:39.886961,10.688519443548206,3.8059640885338064,0.2792054087860274,0.1048678581081513
2023-12-07 15:08:39.896093,26.6847207759456,9.791802924425289,1.298914618185631,-0.0202219251294924
2023-12-07 15:08:39.945323,10.070459021033576,3.019077433335666,-0.9249599790449212,0.6326133026380091
2023-12-07 15:08:40.027252,19.47085662146532,5.994020610733442,-1.4607302112844864,1.0723521810562593
2023-12-07 15:08:40.041774,60.17388874353716,18.596490982279423,-4.3567301285007005,3.246068404180151
2023-12-07 15:08:40.070988,35.95584148479703,8.484958799036553,-8.033852470442111,4.458148897776825
2023-12-07 15:08:40.081303,1.9909950384990909,-0.1320691481842801,-1.6908301221978768,0.8222528582429119
2023-12-07 15:08:40.133767,-5.718090092343534,1.063942890551336,6.235915238449511,-3.040588735212718
2023-12-07 15:08:40.180125,8.840299216100671,5.141796111655345,4.281094599666806,-1.8675935133327624
2023-12-07 15:08:40.230012,15.913763890005963,4.702203290646699,-1.6492552146925183,1.0357856346756706
2023-12-07 15:08:40.362927,-6.512843951319263,-2.5649400425412683,-0.6301060243062688,0.1953617151209269
2023-12-07 15:08:40.426725,17.00979931031555,6.669042131941337,1.599252348757756,-0.4874086408873819
2023-12-07 15:08:40.453707,41.97663872923299,12.557396314484595,-4.096270895532884,2.5533006533123968
2023-12-07 15:08:40.516795,15.42184680099643,2.321050522418245,-6.198764337401005,3.15587235036695
2023-12-07 15:08:40.648044,-2.37010688585209,-2.276068718494191,-2.955860114372147,1.3790184296707206
2023-12-07 15:08:40.704640,-24.16178575793693,-9.80685233139546,-2.839521352827941,1.0628811660483153
2023-12-07 15:08:40.808248,-47.633109117564594,-17.35773126900029,-1.5303465015158928,0.1984767980325087
2023-12-07 15:08:40.837799,-46.53014288255621,-16.904803059423177,-1.34778680153603,0.165916358428305
2023-12-07 15:08:40.887831,-38.01157735412856,-13.8342712950027,-1.1105415289537524,0.1779622642080978
2023-12-07 15:08:40.996372,-8.816257976728869,-3.157789095327149,-0.1237220998513289,-0.0003410658909087
2023-12-07 15:08:41.042294,21.35093084578946,5.4038316609151344,-4.190029843256547,2.194848193848237
2023-12-07 15:08:41.092403,-5.737112845679632,-3.3252785914522947,-2.6441444854863314,1.2456974534590943
2023-12-07 15:08:41.150698,-37.18874099715905,-13.00915778083285,0.1017270272953272,-0.2797195415932322
2023-12-07 15:08:41.206574,5.021403230988225,-0.59417432221784,-4.79261409431807,2.3195266824260945
2023-12-07 15:08:41.231170,25.991202561381428,6.868508547138425,-4.623699065096876,2.3286734337850343
2023-12-07 15:08:41.268039,-13.445918326444902,-6.125654373178099,-2.840103520175869,1.2855199652117373
2023-12-07 15:08:41.354808,-4.258962896247562,-2.738205311709021,-2.492899138434965,1.1912898087968284
2023-12-07 15:08:41.446182,14.157987366541754,6.213834278458581,2.5279056964990443,-1.1441520764782125
2023-12-07 15:08:41.547511,-9.168003506313855,-1.1954824284471914,4.1868853773119366,-2.009307636362389
2023-12-07 15:08:41.668546,-7.382527392965384,-1.9988231643519951,1.271973841424917,-0.6060765107309444
2023-12-07 15:08:41.708117,6.642850215558452,2.116653133764016,-0.4458471876654572,0.2290415687848181
2023-12-07 15:08:41.760710,-6.873867653357341,-2.5683384996068663,-0.2576869247485435,0.1217826042668507
2023-12-07 15:08:41.784826,-11.066836560107,-4.116529263086625,-0.3823635017589968,0.1858848383029145
2023-12-07 15:08:41.845751,19.10506320426137,5.374663842524416,-2.8223507421247627,1.3385943685847954
2023-12-07 15:08:41.909186,14.043165761953466,3.426788325144992,-3.136133545358731,1.4915870450648094
2023-12-07 15:08:41.987529,-17.647875082173318,-6.737206321161662,-0.9216052893472196,0.495032035994525
2023-12-07 15:08:42.010246,-2.2075943790445183,-0.4195361291804406,0.7653801057550238,-0.3597399301886781
2023-12-07 15:08:42.176608,-5.375582314455432,-1.5558795495849729,0.7544428314377049,-0.3359897247006165
2023-12-07 15:08:42.265654,0.6528058051862058,-0.811106765815771,-2.08483339639964,1.0131184696923683
2023-12-07 15:08:42.527902,37.76121177994139,12.537068264540894,-1.864214806140968,0.6988375873507966
2023-12-07 15:08:42.567038,7.299591452806169,2.971871853287778,0.7682813958719482,-0.4126382948191525
2023-12-07 15:08:42.589423,6.079841064397904,2.8083020101777336,1.3323283491458893,-0.665496782669964
2023-12-07 15:08:42.674801,30.32523808026689,12.702209523446491,3.809868131991687,-2.042926289346956
2023-12-07 15:08:42.729969,-4.22256045393348,0.1051069922851137,3.341840468037675,-1.5419653666303832
2023-12-07 15:08:42.777491,-1.9760452758618816,-0.4324161750062205,0.6350530390038633,-0.2390510681225748
2023-12-07 15:08:42.890056,-7.036311482350144,-0.5253457110762574,4.056225284029869,-1.91555486140764
2023-12-07 15:08:43.111850,-19.83892137338936,-4.908753550728429,4.457290698622888,-2.010736948578604
2023-12-07 15:08:43.121858,22.053862348293165,7.449550604561975,-0.9060824317950622,0.2294605062938634
2023-12-07 15:08:43.142402,14.283998381175268,3.982591157472671,-2.2536331037778985,0.9851224920345106
2023-12-07 15:08:43.279658,-0.3105228909219678,-0.7031509788908242,-1.1408698083966702,0.5847708583830658
2023-12-07 15:08:43.285661,28.134060294421435,9.133970655979995,-1.9630997591702093,0.6302817681196752
2023-12-07 15:08:43.349940,10.196350410062497,2.3107196758999624,-2.713483654773861,1.2015169823248553
2023-12-07 15:08:43.467677,-13.778531025642923,-5.943227316923222,-1.9342349111262285,1.1311050173324115
2023-12-07 15:08:43.497674,-14.611859190194387,-5.900505428922664,-1.227675057444367,0.8111772089958699
2023-12-07 15:08:43.549071,-20.606732495361225,-7.82473008409834,-0.7323900543211137,0.6654855442826706
2023-12-07 15:08:43.582213,5.1053141337429,1.42055409784014,-0.8138682378205448,0.3322427903382968
2023-12-07 15:08:43.668365,18.05062228896772,6.01195471669065,-1.0025393831620009,0.2162679203207209
2023-12-07 15:08:43.709376,-13.48357005592958,-5.036900079673735,-0.2816347828711267,0.357462266285915
2023-12-07 15:08:43.731382,-8.465754494525227,-4.027229949892504,-1.8910519911671613,1.0797188531997417
2023-12-07 15:08:43.819368,16.514585592617337,5.767124845861672,-0.3979135014280469,-0.0785767157097339
2023-12-07 15:08:43.989449,22.96276972637681,10.975433301375064,5.379247739943312,-3.025420847787137
2023-12-07 15:08:44.106249,23.70923581633031,9.935174444556251,2.75258061632515,-1.7381860805560858
2023-12-07 15:08:44.252327,-15.273876438263228,-6.968737987396998,-2.823871403758577,1.674167679959116
2023-12-07 15:08:44.375298,-34.93326949819336,-13.847981465732978,-2.310309716480022,1.7774351207663797
2023-12-07 15:08:44.383302,9.72701438411844,2.451302851400134,-2.1236915625254813,0.8793806151226856
2023-12-07 15:08:44.394302,21.107510505345804,6.499718994793774,-2.3038821555308435,0.7454817866114851
2023-12-07 15:08:44.411314,4.973240942287373,1.1942871026021495,-1.1887534484261757,0.498798526065348
2023-12-07 15:08:44.452903,14.762148343754305,4.838113163463014,-1.0162035044055988,0.2252763124358294
2023-12-07 15:08:44.501761,6.181595269496086,1.7077219624823847,-1.0437648251243008,0.3994847191664977
2023-12-07 15:08:44.606074,-8.750015051109948,-3.5573045256540223,-0.7113377125833111,0.5296953425809767
2023-12-07 15:08:44.630171,7.690480723364022,2.392343487635728,-0.7714052104280958,0.2346843553139054
2023-12-07 15:08:44.862827,-0.6183123581618905,-1.0574056784848989,-1.6179922782989915,0.8283856138632769
2023-12-07 15:08:44.869824,-25.92049823749505,-9.936983556855605,-0.9541598557570868,1.015689337595974
2023-12-07 15:08:44.955400,-1.878013745701043,-0.3981754195056879,0.6131136842106533,-0.2597018181066924
2023-12-07 15:08:44.994634,16.07903082096571,5.934802381503965,0.2027245682761313,-0.4245550023795134
2023-12-07 15:08:45.004630,-2.181156939150124,-0.8554830916293256,-0.0729475804062559,0.0952684780268721
2023-12-07 15:08:45.023640,-14.460536741092088,-5.197193507277326,0.189913393070091,0.2211876409207711
2023-12-07 15:08:45.041642,-13.178948274823664,-4.98829881666834,-0.3240363000177623,0.4518031756163549
2023-12-07 15:08:45.056854,2.6179516111094907,0.6136752498008947,-0.6321396031485599,0.2716282114697951
2023-12-07 15:08:45.077002,-13.767592140335884,-5.336997638764534,-0.5926128925272784,0.5974822917881939
2023-12-07 15:08:45.112624,-42.37611069825332,-14.8571396509796,0.4787626104322987,0.9845229236272596
2023-12-07 15:08:45.495787,-19.544952925551662,-6.833611563868401,0.2694560312830679,0.436059886856147
2023-12-07 15:08:45.508780,-9.239848106946948,-3.180608473861405,0.2003863405874103,0.1784166446590106
2023-12-07 15:08:45.534801,-22.69087671549812,-7.868181153658831,0.3555654676175831,0.4888837991162303
2023-12-07 15:08:45.730609,-13.72595944331876,-4.772842082573451,0.2288421196097431,0.2911795774918386
2023-12-07 15:08:45.746167,-0.930864966585967,-0.3126784841424269,0.0821618249846704,-0.0045551440718651
2023-12-07 15:08:45.759246,-2.414054683554578,-0.840493452373217,0.0904356153183396,0.0331572178386635
2023-12-07 15:08:45.773247,-5.229625067403972,-1.8311321973013368,0.1152885635073212,0.1011391846642622
2023-12-07 15:08:45.788257,3.1060113635454374,1.1135874517936313,0.0512235125352386,-0.1040462071429204
2023-12-07 15:08:45.914875,-19.314902541985287,-6.70247265485998,0.3078102776971651,0.4142572532371686
2023-12-07 15:08:45.919879,-44.75530447399523,-15.527047962612455,0.6345282496274252,0.9882448214831748
2023-12-07 15:08:45.978114,-9.440173449891343,-3.232302901265913,0.2171511694749045,0.1769857195594379
2023-12-07 15:08:46.057284,6.231420830195914,2.1528476759016537,-0.0252194234716572,-0.1603779279938052
2023-12-07 15:08:46.072484,-11.153975399440483,-3.854871782872311,0.2164271447638423,0.2245480000547772
2023-12-07 15:08:46.092689,0.3538471584313802,0.1267248170302587,0.0603999340124407,-0.031918847656444
2023-12-07 15:08:46.149228,-8.543627898224589,-2.944068159578738,0.1871370926365947,0.1638173316725828
2023-12-07 15:08:46.287788,-30.57445816821148,-10.472394229949437,0.5616679733382212,0.6244884947593183
2023-12-07 15:08:46.298115,-17.186368254697562,-5.870609025822529,0.3556470877178338,0.335836822125472
2023-12-07 15:08:46.335379,-7.494356670307576,-2.532463045407157,0.2119621154236982,0.1246779976013126
2023-12-07 15:08:46.438932,-1.265826814265463,-0.437046043070627,0.079403713905885,0.0049005473444133
2023-12-07 15:08:46.471947,12.9461516653755,4.368686567630628,-0.2032305740988505,-0.2761515032014129
2023-12-07 15:08:46.553492,4.169428693183364,1.4679915430309725,0.0253793298803402,-0.124213093074869
2023-12-07 15:08:46.566487,-1.4263742748875563,-0.4994329967100144,0.075897142324924,0.0104096296506755
2023-12-07 15:08:46.628820,3.096653216441687,1.1003359813041833,0.0426389196680648,-0.1016187587120166
2023-12-07 15:08:47.008493,-6.380857054732954,-1.818048194589994,0.4620856237461991,-0.006043115409689
2023-12-07 15:08:47.174554,-3.082647743080528,-0.9050738010348996,0.2332272034584512,-0.0065783747228394
2023-12-07 15:08:47.236929,3.267743989882064,1.035720567850719,-0.0597621927968541,-0.0660930944811819
2023-12-07 15:08:47.252181,5.423584767462908,1.829323271105328,-0.050568823716304,-0.129508591209215
2023-12-07 15:08:47.284186,20.84494867327477,6.810387554564121,-0.5457462860566287,-0.3597027498859704
2023-12-07 15:08:47.319196,8.469390206911749,2.8315786150893367,-0.1336009130281936,-0.1810899668375588
2023-12-07 15:08:47.370721,-13.6862493535659,-4.303384473037153,0.5947840119409136,0.1425428443362449
2023-12-07 15:08:47.453927,5.007245263029197,1.542724343170138,-0.1602293528838821,-0.0750579226145797
2023-12-07 15:08:47.467930,5.918026199060435,1.8028603316554863,-0.2170159750906572,-0.0778712210719426
2023-12-07 15:08:47.497944,-30.93677195561964,-9.91640648133051,1.1151824583637773,0.4127157469572165
2023-12-07 15:08:47.527944,-28.338314713469508,-9.179082082995048,0.949406667454844,0.4064646196457535
2023-12-07 15:08:47.557458,-2.3911941117232454,-1.0416391024699343,-0.0800992057054108,0.0971403818404588
2023-12-07 15:08:47.577674,-5.822052771859419,-2.034046598362734,0.1233477954808299,0.1111316873512672
2023-12-07 15:08:47.729310,4.919696163146698,1.394850385469026,-0.2544132032155845,-0.0362527705154078
2023-12-07 15:08:47.779447,25.97027946438712,7.852531061035594,-1.2059394150724996,-0.2410923673185045
2023-12-07 15:08:47.866020,24.49339521179143,7.284181785538609,-1.2322905740537993,-0.1899647409930052
2023-12-07 15:08:47.897814,16.513848260430215,4.848822429117523,-0.8616247577085036,-0.1165275428664632
2023-12-07 15:08:47.924826,-5.948740918142278,-1.83433571001264,0.3210881846860107,0.0352580980665712
2023-12-07 15:08:47.951388,-6.360783894498255,-1.932428185031763,0.3624540109871483,0.0300492511344201
2023-12-07 15:08:48.051413,7.746299722387933,2.2220979126487728,-0.4149034132341895,-0.0518626282178169
2023-12-07 15:08:48.072758,-17.018770686570225,-5.07707342508684,0.9447385200383016,0.0933889225979929
2023-12-07 15:08:48.101762,-2.724440699216585,-0.88270803038396,0.1447142357626026,0.0152876648595642
2023-12-07 15:08:48.296267,35.09688915578903,10.104199652279677,-2.061416380932265,-0.1555785157850852
2023-12-07 15:08:48.454346,13.488137682612432,3.806112051238925,-0.817957100659939,-0.051533312722564
2023-12-07 15:08:48.535517,6.670300703654813,1.7650445235895798,-0.4692200288295284,-0.001548467987517
2023-12-07 15:08:48.654720,24.85322623607054,7.044751602309175,-1.531782322128562,-0.0830324554209652
2023-12-07 15:08:48.820307,19.490241198986723,5.624629214258051,-1.1079068791497644,-0.1031120790553659
2023-12-07 15:08:48.845350,12.81741999519222,3.619913869390422,-0.7722897358000883,-0.0519377842528365
2023-12-07 15:08:48.927368,-4.679233838104745,-1.2626225325738016,0.4096194879230158,-0.0372195069835005
2023-12-07 15:08:49.003915,-23.914944849254265,-6.374096617174928,1.9158351406516512,-0.1030992313965733
2023-12-07 15:08:49.021920,-10.933165763426349,-2.647436250544276,1.1226416144926294,-0.1476230819678599
2023-12-07 15:08:49.036309,4.836291647694439,1.5367682828269935,-0.1173487931278891,-0.0919474634968641
2023-12-07 15:08:49.050013,0.8543525615837823,0.1216246777933687,-0.0936831336295564,0.0085848990087713
2023-12-07 15:08:49.130158,-0.5147104665826425,-0.4249917225673494,-0.134078881789583,0.0622650718895571
2023-12-07 15:08:49.175685,-2.9352662232342803,-1.03223132211292,0.0843795339618574,0.0423039462373123
2023-12-07 15:08:49.215688,-10.06470497492511,-2.88485874743992,0.6763412286391156,0.0043690992663256
2023-12-07 15:08:49.237695,-4.6844903605230215,-1.4583857378191651,0.2523257520872444,0.023595972837089
2023-12-07 15:08:49.301218,-7.701535580821424,-2.12504552510406,0.5974322744477997,-0.0301277279916025
2023-12-07 15:08:49.395798,-9.517557793351038,-2.519067050717352,0.8109666058856111,-0.0648589093106352
2023-12-07 15:08:49.655795,11.688679485143654,2.797305409358036,-1.106923812503258,0.1094483199710911
2023-12-07 15:08:49.737808,12.054629737476764,2.908467868579016,-1.124465538405648,0.1060637532287766
2023-12-07 15:08:49.764097,-3.657512095290806,-0.9060060089699992,0.3968141742666349,-0.0632668352343305
2023-12-07 15:08:49.868631,1.7284014902882612,0.3721920441850512,-0.1484949196435598,0.0039360807893662
2023-12-07 15:08:49.891642,15.828730719298507,3.674153379472104,-1.6117210839647138,0.1943653256595988
2023-12-07 15:08:49.905639,16.38100544061485,3.739532649043561,-1.7207350468611853,0.2221281195263394
2023-12-07 15:08:49.946160,-2.1887760165615875,-0.6317309768868771,0.1877495670650998,-0.0218179161714041
2023-12-07 15:08:49.962222,-8.802386524364785,-2.0583319822356807,0.9724408567392524,-0.1505048386538672
2023-12-07 15:08:50.228100,-2.8871502483857774,-0.5081278309584206,0.4916528209844258,-0.1235455266402849
2023-12-07 15:08:50.298642,-15.282173541110126,-3.1825252444917043,1.961826990211468,-0.3643447040944875
2023-12-07 15:08:50.356151,-17.2979542612472,-3.544719769246202,2.259508732085102,-0.4269395905077377
2023-12-07 15:08:50.391162,4.075940490708793,1.3474323279370235,-0.049702364904085,-0.1019699083953758
2023-12-07 15:08:50.431180,7.457031293898899,2.1297939179068086,-0.4082409334675651,-0.0534243661706352
2023-12-07 15:08:50.479722,-10.95574301597327,-2.1565075677432906,1.5228382544695829,-0.3106723916516621
2023-12-07 15:08:50.619526,-5.319941141320397,-1.1765825634138685,0.6637538815326762,-0.1258507680887026
2023-12-07 15:08:50.770389,17.747055515488732,3.770309377179714,-2.096849529823291,0.331426110695735
2023-12-07 15:08:50.839806,4.762143505454447,0.9959202673194028,-0.534685181037031,0.0704478841386659
2023-12-07 15:08:50.892359,-9.022492275739486,-1.928188535538564,1.1407628406202386,-0.2133637297772356
2023-12-07 15:08:50.966891,-0.1496902660532167,0.0226372180057182,0.1175377483762952,-0.0529331306323304
2023-12-07 15:08:50.986896,-13.370585114064417,-2.5959359740365144,1.874484568990181,-0.3846762898377329
2023-12-07 15:08:51.007899,-17.081881831909,-3.421418314024083,2.2946699729740083,-0.4489695284661625
2023-12-07 15:08:51.052478,-5.588059771470911,-1.152666252283508,0.7607913153845152,-0.1583799572656651
2023-12-07 15:08:51.069902,-7.4551441192457055,-1.4725662379750588,1.0490847128539744,-0.2213392845365453
2023-12-07 15:08:51.085159,3.0337122024960066,0.5116610554850574,-0.420193530926315,0.0714170825977367
2023-12-07 15:08:51.212589,6.205974790718032,1.1221878406677248,-0.8562289436885798,0.1565190941293899
2023-12-07 15:08:51.236597,5.3811753306761325,1.030169966591369,-0.6891500121957054,0.1128415150589524
2023-12-07 15:08:51.567324,14.799755913890545,2.7568094617522347,-2.052978144782625,0.3933636633413063
2023-12-07 15:08:51.610753,-4.280566109450138,-0.789093521378026,0.6708415440650191,-0.1599820026488924
2023-12-07 15:08:51.628750,-12.76572146457699,-2.3109656330276653,1.9264797485644225,-0.4237507357085992
2023-12-07 15:08:51.643752,7.781102056465722,1.433475249312333,-1.0665797971304931,0.1955217124072385
2023-12-07 15:08:51.761252,0.7128275081963603,0.1654104005051201,-0.0208824786458725,-0.0241176852016569
2023-12-07 15:08:51.861778,-11.952565622005745,-2.141448820150914,1.8249753338463888,-0.4064745347231869
2023-12-07 15:08:52.036310,1.3667104605256222,0.2538581031578028,-0.141080769597549,0.0051644918638314
2023-12-07 15:08:52.047825,4.9507326210278215,0.9336289346009268,-0.6417550896748009,0.1045590130906823
2023-12-07 15:08:52.098363,-6.9785523870388815,-1.190124290803795,1.1363810139239878,-0.2712725660129621
2023-12-07 15:08:52.189310,-3.771910035395022,-0.5458108306938549,0.7175607467262303,-0.1939151071728716
2023-12-07 15:08:52.256006,2.8833359808309846,0.7916026273209794,-0.1514603430275159,-0.0332835100692944
2023-12-07 15:08:52.271002,-9.771524449477786,-1.2390160738256235,1.9141913910978976,-0.5031325025649553
2023-12-07 15:08:52.332024,-14.895860271223636,-2.19993744027644,2.6387248969872923,-0.6490583992498283
2023-12-07 15:08:52.349314,0.890630220968426,0.3150333891602954,0.0470902064495986,-0.0573771238910824
2023-12-07 15:08:52.412331,-3.573306119753404,-0.2883765367702933,0.866766475261793,-0.2593183396826987
2023-12-07 15:08:52.455878,-13.126970230069242,-1.9512131312955543,2.321448503138044,-0.572469823002932
2023-12-07 15:08:52.620727,21.2434084592867,3.3245856037122063,-3.482170284298969,0.7798471366584776
2023-12-07 15:08:52.724295,40.14275442101827,6.380673045520563,-6.548344463218132,1.473762263674417
2023-12-07 15:08:52.862919,9.584986528801863,1.5519103197152624,-1.500109544809918,0.3155229319972872
2023-12-07 15:08:52.969458,-6.263248197662076,-0.976985078357284,1.0982389430992854,-0.2773579674906603
2023-12-07 15:08:52.991462,4.293497768202365,0.7048901163537531,-0.6347949899516444,0.1182811205573485
2023-12-07 15:08:52.998479,15.240443204737886,2.36196506894034,-2.502043186980057,0.5563943678967568
2023-12-07 15:08:53.091828,18.4895543033426,2.8553959615693763,-3.054992279381618,0.685864665343752
2023-12-07 15:08:53.124652,21.965309943426927,3.3859664395632447,-3.6443125844844633,0.8235046334087104
2023-12-07 15:08:53.297498,13.704683242964204,2.064658545480747,-2.2925329833972743,0.5154668833215906
2023-12-07 15:08:53.318501,-9.11118866000601,-1.409576524322523,1.5825272259241834,-0.3913132861698866
2023-12-07 15:08:53.472653,-2.0453007123014264,-0.3306170271831892,0.3848378716753619,-0.1115342216274926
2023-12-07 15:08:53.497668,4.730028401488255,0.7074422296347558,-0.7608018201087888,0.1556313732999281
2023-12-07 15:08:53.543033,3.72095721291988,0.6039703225538239,-0.5489648501096326,0.0994139306370716
2023-12-07 15:08:53.688472,34.41813530822981,5.198784606307654,-5.826835153655903,1.3447574408401226
2023-12-07 15:08:53.773391,32.155569565503534,4.838454520742901,-5.455331724466905,1.259859979428262
2023-12-07 15:08:53.821394,4.40775321485359,0.7132439670163858,-0.6619045378053088,0.1250814973898617
2023-12-07 15:08:53.869414,5.84117695144049,0.9184472805358104,-0.9159244185092488,0.1861980437544429
2023-12-07 15:08:53.888424,11.416638251430436,1.709215842544404,-1.9098640347931604,0.4263830928138663
2023-12-07 15:08:53.914431,15.422059012300188,2.262421062465393,-2.635922538753579,0.603694226784669
2023-12-07 15:08:53.929419,5.107292956374088,0.7434135111530803,-0.8423815136519923,0.1772222410671629
2023-12-07 15:08:53.941437,3.0780391668479616,0.4516116043848476,-0.4838631466334756,0.091056782910153
2023-12-07 15:08:53.959969,18.8121699538942,2.751987098627012,-3.233241144052323,0.7469078187870474
2023-12-07 15:08:54.029976,7.287249041861764,1.0744877965355424,-1.2133560460842336,0.2641020697983297
2023-12-07 15:08:54.058296,5.15514934453999,0.7302583408484145,-0.925900535350276,0.2515209589681528
2023-12-07 15:08:54.179105,8.109336874569188,1.170407634167746,-1.4846691728443018,0.4289544202839456
2023-12-07 15:08:54.239637,-9.97693459667061,-1.594522997699617,1.942435427606738,-0.7075629776444765
2023-12-07 15:08:54.280166,-8.28673122956199,-1.3497761970438402,1.6233314999951078,-0.6110699701305399
2023-12-07 15:08:54.316181,-5.477944264407557,-0.9254286303431984,1.0914815657110075,-0.4381003034549503
2023-12-07 15:08:54.463822,4.260690100068904,0.6101460001856495,-0.7581419749932082,0.2075115238595488
2023-12-07 15:08:54.556364,13.727751084012388,2.1078041420515223,-2.55664670474412,0.8386600757172143
2023-12-07 15:08:54.647392,-6.937224416964576,-1.067621076291181,1.3604479847966569,-0.4714565709128175
2023-12-07 15:08:54.723944,-1.323965751116794,-0.2024585944682514,0.2960266347024902,-0.1135036338504448
2023-12-07 15:08:54.848511,5.220141128256542,0.8096024839188294,-0.9452092394089392,0.3062599811934569
2023-12-07 15:08:54.885041,-5.951340147026036,-0.9525112267685208,1.1763178069383855,-0.4344481950315612
2023-12-07 15:08:55.098164,14.074634686441714,2.163842117637731,-2.62347484374881,0.8635685071295748
2023-12-07 15:08:55.118174,13.74125255677578,2.128288709742445,-2.561902815084732,0.8539206650237536
2023-12-07 15:08:55.128678,-2.191990231118104,-0.3799114614370175,0.4634847525547155,-0.1989499251812915
2023-12-07 15:08:55.222322,-1.1239987267438167,-0.2254227838826628,0.2616367642621099,-0.1378291138106268
2023-12-07 15:08:55.351652,-17.078537401785198,-2.7674637063382543,3.293754722835412,-1.2139142414479405
2023-12-07 15:08:55.378768,-25.24392706726833,-4.056912004986207,4.844379481399904,-1.7561928977134165
2023-12-07 15:08:55.404803,-17.63445889225737,-2.855286352043311,3.398735562728499,-1.250175808754699
2023-12-07 15:08:55.420802,-1.2120254569870932,-0.2253831701926624,0.2758853094898825,-0.132277556172753
2023-12-07 15:08:55.648517,13.437517154077122,2.177673684886956,-2.51498795359856,0.905896194576249
2023-12-07 15:08:55.677052,-0.8274169420018196,-0.1627817591360975,0.2019463846835105,-0.104553007231057
2023-12-07 15:08:55.758620,3.628775414667832,0.6073749733163891,-0.6507788330837199,0.2396451350552454
2023-12-07 15:08:55.849316,14.68014471781229,2.480698928274221,-2.7617095973530814,1.0663416471545026
2023-12-07 15:08:55.960867,-3.78942001301262,-0.6356410002451243,0.7637915902997279,-0.3036594352134973
2023-12-07 15:08:55.992870,-6.132057461201464,-1.063211556309249,1.213460112424261,-0.5001346673264025
2023-12-07 15:08:56.044368,-7.333333027102811,-1.3624420477265935,1.4509600043446498,-0.6579375236874555
2023-12-07 15:08:56.107068,-13.352464072283572,-2.4359657008735307,2.6047440418463115,-1.1455436447425245
2023-12-07 15:08:56.134073,-5.388395019456098,-1.0201498622400331,1.0774465093764127,-0.5023968188568481
2023-12-07 15:08:56.163604,-5.460625075125935,-1.027829382425999,1.090332292561386,-0.5039498641066803
2023-12-07 15:08:56.190617,-2.37871469253414,-0.4463837201810979,0.4959776459937253,-0.230639996687217
2023-12-07 15:08:56.324147,-7.762206740249579,-1.45783161522449,1.5323895822461235,-0.7033842974900214
2023-12-07 15:08:56.355663,-17.095629536145903,-3.222627213413517,3.330607587315453,-1.5314707177067826
2023-12-07 15:08:56.409240,6.832951994485043,1.194027121640442,-1.2719007280948962,0.5165028917937045
2023-12-07 15:08:56.421238,20.62930760541523,3.748629163561783,-3.9265168057411,1.7033974622856232
2023-12-07 15:08:56.447261,5.0928807872043445,0.8500877493081113,-0.9363767292623218,0.3526443725876454
2023-12-07 15:08:56.461772,-1.4679685833545724,-0.3185239476361573,0.3210220512131932,-0.1776486484310772
2023-12-07 15:08:56.496933,5.355529532413734,0.9654622857633838,-0.9940784397063608,0.424454052673806
2023-12-07 15:08:56.558446,4.125763586852605,0.6980960168304319,-0.7545877961278934,0.2910161751857026
2023-12-07 15:08:56.703000,-14.588498500935298,-2.937603230436623,2.8601173454718096,-1.4395058321606704
2023-12-07 15:08:56.723005,-10.892454460906029,-2.2385444479764502,2.1471385085300865,-1.1104451991010849
2023-12-07 15:08:56.814219,6.688041334489722,1.2436655464919764,-1.2558013470235958,0.5645389818853996
2023-12-07 15:08:56.862784,-7.514455372735028,-1.6569138747185876,1.4998893447222057,-0.849896085944493
2023-12-07 15:08:56.949814,-12.929004623424758,-2.7130507448056167,2.545602943246966,-1.3530419538258287
2023-12-07 15:08:56.995361,-10.092545504884944,-2.003927494957048,1.9828242189938368,-0.976560982564988
2023-12-07 15:08:57.122926,-23.53667796640476,-4.835058874006617,4.598936324563583,-2.376620070109361
2023-12-07 15:08:57.175497,-16.963858453875126,-3.4863177502396527,3.3220301799740355,-1.716286128939014
2023-12-07 15:08:57.251526,-4.892565765886853,-1.047505736044103,0.980931707795774,-0.5316129403612145
2023-12-07 15:08:57.314181,1.1685296256964055,-0.0011580019120152,-0.1790008772884483,-0.0640648685319904
2023-12-07 15:08:57.439986,5.523141240903642,0.978522578041669,-1.0329323469098106,0.4354386246895666
2023-12-07 15:08:57.468512,-3.934142478292458,-1.1223360315014246,0.8168871170143623,-0.6274748020068805
2023-12-07 15:08:57.506517,-2.5661365274709707,-1.040502274979674,0.5682873231928226,-0.6318745575438728
2023-12-07 15:08:57.619053,-3.2843337838696165,-1.1020923742768445,0.6993134902140985,-0.6415889212143746
2023-12-07 15:08:57.675101,-13.661418886863462,-3.281205216866927,2.717833763823059,-1.7175895509279475
2023-12-07 15:08:57.688099,-5.875961677917255,-1.5292703569280182,1.191631083332478,-0.8248888373228521
2023-12-07 15:08:57.720113,-6.710359106548935,-1.7338590875601252,1.355846226512021,-0.931635899754495
2023-12-07 15:08:57.760117,-18.37594499021274,-4.4957791082919565,3.6529734603832207,-2.365095248364032
2023-12-07 15:08:57.795120,-19.681375489186504,-4.9026357875552895,3.9180710847218783,-2.5947829237704543
2023-12-07 15:08:58.011810,-21.739999124626888,-5.427491656666498,4.326141102057047,-2.87384340797335
2023-12-07 15:08:58.185252,-11.185142960077547,-2.8392220056992348,2.2382574259554624,-1.5111334388696884
2023-12-07 15:08:58.357789,2.705125238302321,0.6415435515046367,-0.5158285310509207,0.3353695357737538
2023-12-07 15:08:58.431800,-7.936295923332875,-1.9962360571951665,1.5901117374319336,-1.0569513984069716
2023-12-07 15:08:58.451804,-10.73633353278222,-2.8854084001091382,2.161080435979631,-1.5624523869361366
2023-12-07 15:08:58.521336,-6.920541189333411,-2.013027171751389,1.411412392013368,-1.1146003104093174
2023-12-07 15:08:58.534557,-24.85001621534258,-6.5495921351199256,4.96844100922189,-3.527210793000647
2023-12-07 15:08:58.680202,-18.802966256793685,-4.963724916439798,3.76270863504899,-2.6722721259852693
2023-12-07 15:08:58.777270,-2.052328708539048,-0.5825930893257173,0.4252404211329422,-0.3141376737868561
2023-12-07 15:08:58.804276,-22.14974196023334,-5.967722649015206,4.439265312933111,-3.2335963576868854
2023-12-07 15:08:58.837537,-22.134994462204524,-6.005218948780664,4.439222307189037,-3.2602371318550767
2023-12-07 15:08:58.862055,5.066407611443587,1.4129948260824936,-1.007126792978644,0.7862014398165552
2023-12-07 15:08:58.883058,11.199233463782535,3.1357968288934344,-2.240169196237204,1.7352626226870926
2023-12-07 15:08:58.945105,9.78747592674388,2.755041427076036,-1.958717712476644,1.529259632544868
2023-12-07 15:08:58.988622,5.801985813748535,1.6066092246938952,-1.1561415800126915,0.8933319393457496
2023-12-07 15:08:59.050129,0.6706333082308874,0.3283832301507614,-0.1404886069992374,0.2179152466018736
2023-12-07 15:08:59.128854,19.24264179904353,6.06331781637914,-3.919132628403995,3.4611517392602367
2023-12-07 15:08:59.156390,34.797408488498725,10.56663690207029,-7.057222823776118,5.962696623425489
2023-12-07 15:08:59.208879,0.9140004827514628,0.3540788336771553,-0.1879134180740953,0.2276509830952595
2023-12-07 15:08:59.300446,-19.10397490289877,-5.586058961255693,3.861755319376376,-3.0933056244126096
2023-12-07 15:08:59.420786,14.322753546445012,4.311471455685698,-2.9006515014539627,2.4390786737862773
2023-12-07 15:08:59.436787,5.830547083195985,1.56387160380601,-1.1627615569498189,0.867602348981132
2023-12-07 15:08:59.590210,-23.24744170660414,-7.346069914711875,4.745261519806951,-4.158440873687967
2023-12-07 15:08:59.604214,-3.8602367659400127,-1.427737889864347,0.8069368398585518,-0.8219016087843889
2023-12-07 15:08:59.855773,6.630237799834718,1.9210226891473323,-1.3375085846314947,1.0887648975326292
2023-12-07 15:08:59.916785,3.068912112392567,0.9106642941267192,-0.6217858109999991,0.5319006348774814
2023-12-07 15:09:00.019874,1.0958623838914576,0.3368595001203689,-0.2243220040704158,0.2136848350901008
2023-12-07 15:09:00.100769,-3.823357619324945,-1.1585506907406933,0.7735095216249623,-0.6273770189354209
2023-12-07 15:09:00.422526,3.308048151654922,1.085257197977968,-0.681563091356502,0.6483065465945574
2023-12-07 15:09:00.476842,-9.9121910506742,-3.118240685732361,2.0177883868060515,-1.7457404769236684
2023-12-07 15:09:00.598835,-19.589246345125176,-6.2414164897821,3.997638732509384,-3.531109109644823
2023-12-07 15:09:00.631839,9.265256517664044,2.936510870925056,-1.8964507531976016,1.699066030122054
2023-12-07 15:09:00.717468,20.32654486298741,6.508529886638469,-4.161131745510552,3.742977880951343
2023-12-07 15:09:00.736696,4.973438880527561,1.6614234388137197,-1.0292170545186388,0.987278145058296
2023-12-07 15:09:00.755299,-5.071504963789084,-1.5945077190359214,1.0272235353921373,-0.8760947327116048
2023-12-07 15:09:00.775320,-9.638416535569029,-3.235770586237998,1.976223202663768,-1.83824077599943
2023-12-07 15:09:00.798624,-11.955755111863407,-4.032523722966045,2.4542473396733784,-2.300272749027605
2023-12-07 15:09:00.819818,-5.3820895678794365,-1.831773262427,1.1011911226737672,-1.0295070481506
2023-12-07 15:09:00.904380,13.834005269953511,4.581493418035592,-2.8511039575942307,2.669544289219915
2023-12-07 15:09:01.122674,13.29338806934539,4.479972853037143,-2.74755070516849,2.6227053069867754
2023-12-07 15:09:01.139679,-6.936354486803381,-2.2723727024325324,1.412119974951596,-1.270674403081591
2023-12-07 15:09:01.161228,0.1569980875912549,0.1385885871627288,-0.0510373609928175,0.12639848298824
2023-12-07 15:09:01.189233,17.28992137145563,5.903012229725231,-3.5790262065461005,3.4577086956239977
2023-12-07 15:09:01.202243,8.140722789281071,2.7759494185432194,-1.6914761949790205,1.6447025919084908
2023-12-07 15:09:01.224263,-7.2299171081206275,-2.3905333966065383,1.4722009317031246,-1.339232607674919
2023-12-07 15:09:01.237269,3.0842971913614408,1.099717919497206,-0.653640916172123,0.6807797424395506
2023-12-07 15:09:01.372693,23.74936122615494,8.158890954415618,-4.918293253914804,4.774896223037613
2023-12-07 15:09:01.397154,12.968271450118744,4.45760185063845,-2.6924457060717675,2.6265334192065266
2023-12-07 15:09:01.514762,-6.610863033254415,-2.358466754859577,1.3586427657180478,-1.3430502141497571
2023-12-07 15:09:01.542192,-3.247086575592095,-1.1393953005433948,0.6578619068913438,-0.626059166664247
2023-12-07 15:09:01.603874,-2.733418944497496,-0.9461001390830538,0.5498720304220859,-0.5110660873910265
2023-12-07 15:09:01.649976,-9.287887683710462,-3.347217951352532,1.916465804638552,-1.925188205531959
2023-12-07 15:09:01.685538,-3.619289259893295,-1.371154826937091,0.7428519676210098,-0.773429398866761
2023-12-07 15:09:01.843819,10.414113014183991,3.6213409377394807,-2.171005925625823,2.1492703990663293
2023-12-07 15:09:01.900122,10.58941159100325,3.693325833451397,-2.208593127373416,2.193053221618062
2023-12-07 15:09:01.974902,-1.3154527904383064,-0.5166625419001446,0.2604303867893963,-0.2675304449715552
2023-12-07 15:09:02.042376,0.010627831750694,-0.0372838650729933,-0.0158579324626646,0.0144102257814179
2023-12-07 15:09:02.117911,11.94322151183036,4.21303813263463,-2.493954972757075,2.503288290329948
2023-12-07 15:09:02.416370,24.1421575104133,8.594661543932823,-5.030594364570243,5.073800185789191
2023-12-07 15:09:02.431065,19.230575719381893,6.84068932975561,-4.010538700211627,4.04654112397598
2023-12-07 15:09:02.668147,-1.1046343749965752,-0.4909416903895095,0.2197619463945585,-0.2574477601020137
2023-12-07 15:09:02.729168,-4.083217089528914,-1.5436157240524102,0.8373244939656042,-0.8724657555009645
2023-12-07 15:09:02.767088,-4.389876201895663,-1.616184760213783,0.8975425010522573,-0.909933336466256
2023-12-07 15:09:02.993408,-3.760531764706613,-1.4024629743708426,0.7676257012689433,-0.7859788579311081
2023-12-07 15:09:03.027421,7.041866459465721,2.484317239293731,-1.479138786343033,1.4950123970856062
2023-12-07 15:09:03.045469,1.1990967237040624,0.3711762013785849,-0.2631508069764474,0.2537236728224993
2023-12-07 15:09:03.121028,-4.7358662186531095,-1.7751703994586785,0.9720334279488454,-1.0070773567428128
2023-12-07 15:09:03.138022,-2.7180939322876045,-1.032794484132048,0.5508388700565879,-0.5692129873862932
2023-12-07 15:09:03.160573,-0.3960297799400759,-0.1893836585131882,0.0671340785152247,-0.0731796537419694
2023-12-07 15:09:03.195025,7.215477036041436,2.5483707380961547,-1.5158282769423854,1.5333138468720666
2023-12-07 15:09:03.285585,7.593628437026837,2.682564906885991,-1.594336597263006,1.6118525175750171
2023-12-07 15:09:03.327061,16.32872802943664,6.004593367049476,-3.4100496460351266,3.608212325451101
2023-12-07 15:09:03.589294,16.96545762015212,6.241380339452339,-3.542166233207489,3.748745896505091
2023-12-07 15:09:03.634291,-6.988339151731337,-2.6615253353033546,1.4262160079315005,-1.53506463018817
2023-12-07 15:09:03.735821,-13.754251675635643,-5.184754725264178,2.832216853225849,-3.0325097271515604
2023-12-07 15:09:03.874937,-10.51626262829445,-3.9702199223025287,2.1570912535334785,-2.3117497553879263
2023-12-07 15:09:03.894432,-4.373501799016718,-1.6793634402903608,0.8804876607150912,-0.952170085027445
2023-12-07 15:09:03.914424,3.171590407675742,1.117818993893709,-0.6823357831474278,0.7080233997932595
2023-12-07 15:09:03.971995,-5.232893639593441,-1.9933763465141627,1.0568876197784765,-1.1385034331688773
2023-12-07 15:09:04.043284,8.210157423023002,2.987956770489711,-1.7268063097627055,1.818038466092096
2023-12-07 15:09:04.054301,22.68705117519378,8.343722932493682,-4.721875161761062,4.996880182834308
2023-12-07 15:09:04.125823,-4.923803161209599,-1.876316016165868,0.9917525796266768,-1.068896162160032
2023-12-07 15:09:04.188752,-13.843418355028588,-5.174030946607052,2.836222801161867,-3.0261337074316934
2023-12-07 15:09:04.228759,9.140657571347791,3.323378404380497,-1.9170790195217164,2.0174158027512226
2023-12-07 15:09:04.258273,13.602351572968129,4.969537845633333,-2.83887711409394,2.9945602262560347
2023-12-07 15:09:04.390374,-2.047407588124868,-0.8128359228520089,0.3962538955399844,-0.4374100978259926
2023-12-07 15:09:04.583818,-9.83055418434261,-3.685843733683324,2.004225492712249,-2.142580869456537
2023-12-07 15:09:04.609834,13.880734806472546,5.047190534881476,-2.889108794439065,3.0410812416803883
2023-12-07 15:09:04.645845,25.712424728094884,9.397137707998825,-5.328520915483145,5.623182846461549
2023-12-07 15:09:04.754802,-7.541176979309675,-2.824119509979704,1.5253294999303015,-1.6309483871785724
2023-12-07 15:09:04.772315,-18.39750706987721,-6.809962142961385,3.761479476649966,-3.996768821413067
2023-12-07 15:09:04.808461,9.950282008879814,3.576129126311664,-2.071606293377523,2.168496972255193
2023-12-07 15:09:04.981903,22.12835503026539,8.03158718748776,-4.575637421477519,4.813406257257282
2023-12-07 15:09:05.016294,7.323896492583987,2.61114401813587,-1.5308901533519648,1.5959396102346846
