Timestamp,TP9,AF7,AF8,TP10
2023-12-07 15:45:45.259516,-3.17002917491569,-3.496133978045196,-6.6322971078673625,1.5143373258448625
2023-12-07 15:45:45.366846,-2.172513508337,-4.978272179419231,-8.520166693704116,-0.3500721246132397
2023-12-07 15:45:45.646385,3.915924980715514,-3.4152260564135988,-5.123019562518982,-4.803120812217961
2023-12-07 15:45:45.711689,7.439724280201067,-1.307212037743275,-1.045900384823644,-6.961046375024006
2023-12-07 15:45:45.731781,6.051942491001685,-2.432427367593497,-2.048435685668586,-7.104533864603089
2023-12-07 15:45:45.802877,-0.8412491671826433,-6.645942323024344,-11.701798379368748,-1.6697064727444484
2023-12-07 15:45:45.974774,10.106633358804622,-7.774228581138667,-9.437336138707805,-13.526277801669622
2023-12-07 15:45:46.190297,18.26451863216682,-2.81835157285473,2.01359779418363,-20.02159178629714
2023-12-07 15:45:46.220510,6.880390113621663,2.837826696859182,7.150851729151586,-5.844560181104588
2023-12-07 15:45:46.252569,4.457216287814463,1.976129770206972,4.787836297440776,-3.6754131947496025
2023-12-07 15:45:46.401855,-1.2144233032390197,0.4873260273790165,0.3343884331128953,1.4919187537695062
2023-12-07 15:45:46.568522,-7.895601647328091,4.475832829436606,4.610545074056274,9.994571035437431
2023-12-07 15:45:46.820628,4.350926797671173,6.759498319661406,12.930377548317384,-1.7159013136696255
2023-12-07 15:45:46.911509,10.452140680562549,10.51912393352782,21.437720498872345,-6.456528266453729
2023-12-07 15:45:47.125479,4.116571113846469,11.842332949573606,21.373815353071866,0.598909418580972
2023-12-07 15:45:47.171002,6.2730609655903455,2.2188959685914216,6.01503657540885,-5.5504863708063565
2023-12-07 15:45:47.199005,7.874775731674265,1.394861094229611,5.173331285692154,-7.509626085130445
2023-12-07 15:45:47.232516,1.7443397259180136,6.717459716721731,11.908126661373174,0.956768372224892
2023-12-07 15:45:47.331368,3.439203585972556,1.4426172233591157,3.6589977500260753,-2.930954835004172
2023-12-07 15:45:47.448868,5.258991237189589,2.649065619552452,6.332088899962376,-4.305272842391682
2023-12-07 15:45:47.837868,1.5907347043138151,3.903383591780732,7.141698728055178,-0.0388109353951356
2023-12-07 15:45:48.179550,1.805728590192858,-0.848650620152699,-0.7025712648976884,-2.231283247208742
2023-12-07 15:45:48.368698,-2.9252276909022337,10.72877651369082,16.874289148786687,7.449787037877469
2023-12-07 15:45:48.886605,-3.640922987676504,13.452276385753182,21.040379682424845,9.39214984338193
2023-12-07 15:45:49.054117,5.4991221407487645,-2.8266805516423887,-2.755768313014044,-6.791913945538424
2023-12-07 15:45:49.100127,2.791366392970856,-3.900499950451527,-5.544777722711258,-4.43745841960168
2023-12-07 15:45:49.169894,-4.601815659864428,-2.1121810391398785,-5.336667537838545,3.978627664712343
2023-12-07 15:45:49.472331,-3.278196092012996,-5.4648508308949335,-10.46595279116817,1.2382425890459827
2023-12-07 15:45:49.564154,-2.8838748856154703,-2.1019022521561705,-4.855797445338458,2.3189373557299526
2023-12-07 15:45:49.829372,-6.767758912032776,-5.822669765935137,-12.336308095870129,4.6899598682978825
2023-12-07 15:45:50.184214,-12.30533232933588,-7.874152407818413,-17.923510409609335,9.645845877933384
2023-12-07 15:45:50.250468,-10.865759457181344,-4.590765177320392,-12.279300734510963,9.75590752908652
2023-12-07 15:45:50.432613,0.5746911886478117,-9.501117527621265,-15.559246896277276,-4.55657948771104
2023-12-07 15:45:50.486922,5.535952457593497,-8.36390492812509,-11.486543091814648,-9.439820007488803
2023-12-07 15:45:50.769909,2.285708665685686,-6.999334246130714,-10.73092619114934,-5.303447111166676
2023-12-07 15:45:50.859806,-0.0252019666164763,-12.355343783502422,-20.328110923744,-5.2560605750989975
2023-12-07 15:45:50.914104,-1.4241511597428365,-6.851122141848352,-11.921945838830643,-1.3595248637143718
2023-12-07 15:45:51.025558,0.6967312500493462,-3.8466909305173607,-6.1034054456460565,-2.3229192623670376
2023-12-07 15:45:51.169903,0.4981329972856173,-8.029372692570613,-12.79351370581922,-4.084750210736335
2023-12-07 15:45:51.515244,0.4954439712887316,-5.046947844778487,-7.999923743498135,-2.7279119995889327
2023-12-07 15:45:51.628990,7.981352882685978,-3.8819125259600913,-2.725429388188398,-10.356002042800936
2023-12-07 15:45:52.214656,5.144332387581951,-4.0745702929615,-4.226911363822609,-7.414626910644883
2023-12-07 15:45:52.308397,-7.917152459729038,-2.05254413003608,-7.2586661613746095,7.963884509270813
2023-12-07 15:45:52.386591,-12.156917154332923,-3.6792101727303175,-12.149432164236847,12.074877269362736
2023-12-07 15:45:52.652912,-8.95486173636871,-3.836273681119569,-10.772941298575194,8.401514010645105
2023-12-07 15:45:53.139466,-6.952871184935695,-1.6039420542854397,-6.120615671503924,7.133188195055856
2023-12-07 15:45:53.498854,-7.987990770610504,0.6851480408504466,-3.195246757914397,9.486400185109996
2023-12-07 15:45:53.665515,-8.214730774060515,1.7546056902020415,-1.6772700512199503,10.283847622877518
2023-12-07 15:45:53.858260,-4.708725274181343,-1.6005868241790482,-4.98519816481532,4.619953514399371
2023-12-07 15:45:53.997252,2.9523167183913803,-4.749324275037749,-5.833470540482176,-5.634644293909175
2023-12-07 15:45:54.094071,5.467342862492908,-3.035179565935368,-1.7800711398997957,-7.697744793715008
2023-12-07 15:45:54.218940,-2.805023765117889,1.2877247275393129,0.3823010371864766,3.9508625967702
2023-12-07 15:45:54.342974,-4.794167250503317,1.9529818104503984,-0.0466539633265149,6.809646066959394
2023-12-07 15:45:54.398879,-0.3600574247658016,-0.6730725478256865,-1.4526509256578066,0.2640887251645395
2023-12-07 15:45:54.514930,-1.434504399673148,0.0406523440055809,-0.4700282939406888,1.5485215592034238
2023-12-07 15:45:54.572825,-1.0859860580927796,1.957957161189818,2.048327463941139,2.511468884272088
2023-12-07 15:45:55.053234,-2.7896706575853907,3.164638650042179,2.3729934689830308,5.465880492352078
2023-12-07 15:45:55.240651,-8.77479382267029,3.617446882855152,-0.3036951377216312,12.641874443509822
2023-12-07 15:45:55.711336,-6.538208088586958,1.3930906172164372,-2.295668698650188,8.825624908304652
2023-12-07 15:45:56.227856,-2.56298742048648,0.8535426875231876,0.2654721937171936,3.190449754490715
2023-12-07 15:45:56.409041,-4.197474556161422,2.5600551265812697,2.036964138511801,5.896654229804538
2023-12-07 15:45:56.599776,-5.143959947012032,4.497564851690257,3.2012312165958763,8.801287772426301
2023-12-07 15:45:57.114646,-8.17774812394649,6.661940578859196,4.626531391580072,13.53167515581762
2023-12-07 15:45:57.238667,-8.159152850317522,4.314809509806183,0.7154429842349845,12.543001975001268
2023-12-07 15:45:57.433449,-1.4952535554635735,-0.3361150368111186,-2.7084677462602045,2.502539608005708
2023-12-07 15:45:57.639267,-0.2951215439414812,-1.305568136196888,-2.3975467571725613,-0.1089042269572694
2023-12-07 15:45:57.869029,-0.1947463411349383,-0.7241741108151265,-1.06867912035526,-0.1811010072778547
2023-12-07 15:45:58.022334,-0.761396731694564,0.4570669912021599,-0.1376951243871075,1.437499900259829
2023-12-07 15:45:58.326227,-4.203838394406129,0.8797650198000905,-1.822811783693054,5.904443542294055
2023-12-07 15:45:58.420014,2.503072274890358,0.0090363791970239,1.7977599556029142,-3.0867202359890893
2023-12-07 15:45:58.682035,3.892714536201264,2.490743776851052,6.414564010818191,-3.4711250268759986
2023-12-07 15:45:58.935670,-5.499276929344565,3.8634737287886094,1.1611353989494009,9.472629728976573
2023-12-07 15:45:58.982729,-2.846694540854556,2.187807925765883,0.9601345021091388,4.98188459408473
2023-12-07 15:45:59.298229,-1.3400795563793524,3.4712006579349644,4.401615293152225,3.470418532270207
2023-12-07 15:45:59.399636,-6.724478726334479,2.3517646102877565,-1.8778633977230592,10.158991599457716
2023-12-07 15:45:59.653818,-2.004087036445954,0.2340490345462235,-1.3239269302161338,2.870791624608112
2023-12-07 15:45:59.805365,3.9553048621445615,0.9617054242637983,4.739593145265912,-4.71968888557143
2023-12-07 15:46:00.992585,5.684809002011787,-2.238759817255713,1.5055499115243265,-8.790413241190036
2023-12-07 15:46:01.141224,2.431282689306132,-1.6526743889060491,-0.4943602833832752,-4.021998720774231
2023-12-07 15:46:01.365634,-1.026188534389893,1.435118000632227,0.8363826429358221,2.494658995314814
2023-12-07 15:46:01.590636,8.985766289231998,-3.6133344503441793,2.640754002925447,-14.213210798406678
2023-12-07 15:46:01.623600,12.79876651842742,-4.351468797235783,5.311039490325975,-20.08968635862978
2023-12-07 15:46:01.752635,6.814663511180032,-1.2170235383229184,4.282731762405407,-9.958652884094905
2023-12-07 15:46:01.803927,12.68240252219211,-4.918178376789071,4.681959881356242,-20.436714040515696
2023-12-07 15:46:01.990103,11.428234715215432,-5.23075629934473,3.55741755462518,-19.17680225305148
2023-12-07 15:46:02.047289,-0.8242971385021508,-0.1957127608254606,-1.138593140768088,1.1781886344019177
2023-12-07 15:46:02.138235,2.721509830516112,-1.1058040859060734,1.0776012887040414,-4.448460837300451
2023-12-07 15:46:02.294982,10.435085197286842,-3.9999503922255215,4.741721803014768,-17.30909232950878
2023-12-07 15:46:02.394429,4.17687574651479,-0.1985009230142674,3.2466269102411984,-5.652892509743284
2023-12-07 15:46:02.419779,0.708115634674629,0.6238513370730837,1.6513511892158466,-0.6229143748699348
2023-12-07 15:46:02.765789,4.952525876242273,-4.06344321869292,0.4465337360400244,-10.24909298663316
2023-12-07 15:46:02.809346,0.8217730547835267,-1.8838485595603816,-1.6257620399465484,-2.341721358990212
2023-12-07 15:46:02.947577,-2.4634341051005344,1.613222438227255,-0.3395070544585437,4.682711125755241
2023-12-07 15:46:02.995159,0.6099792030599798,1.37269937432603,2.6488366238613463,-0.0669164155776555
2023-12-07 15:46:03.032226,-3.3153508816201147,2.957525225295876,-0.0899528193047047,7.218460632431468
2023-12-07 15:46:03.167762,-4.174221615811192,1.9678202021080708,-2.2198887349076104,7.803225943092094
2023-12-07 15:46:03.223290,-3.701771090824281,1.0973709800677884,-2.947613040649048,6.595813385782831
2023-12-07 15:46:03.399057,-8.039316864702947,2.136811623461204,-6.590011430843504,13.97806746820181
2023-12-07 15:46:03.594272,0.9584120050018964,-2.8415298624860563,-2.595362247250113,-3.250945602299575
2023-12-07 15:46:03.650285,7.429536089913651,-4.830837231313169,2.493668674800202,-14.696596215717475
2023-12-07 15:46:03.764741,-0.2223176029812511,0.2442700876824187,0.4171856909991316,0.3594686398003924
2023-12-07 15:46:04.572876,-0.6321764602529372,0.6909273231034357,0.2473253034738466,1.467805199114368
2023-12-07 15:46:04.602839,-0.5046811765094439,0.1825563083056864,-0.4261765903976732,1.0428696283178096
2023-12-07 15:46:04.663733,-3.4996760357721226,2.3173521123090577,-1.1304441576686493,7.08857726844888
2023-12-07 15:46:04.909932,-1.304862294374405,1.141299190709576,-0.183150792283726,2.9617265735401648
2023-12-07 15:46:05.543167,-0.5469858048144695,-0.9572042425778386,-1.905507438134194,0.3307825553288768
2023-12-07 15:46:05.711632,0.7325594317342801,-1.711152200911067,-1.2968864922637593,-2.2144239808254165
2023-12-07 15:46:05.817716,1.1398539527608955,-1.3413656418473232,-0.5211104098237934,-2.487383859810316
2023-12-07 15:46:05.858913,-1.1788742119763975,-0.1473417091368611,-1.7012647445125932,1.918129089613561
2023-12-07 15:46:06.129771,0.4672347664255761,-0.4636197298433434,-0.1032439747420736,-0.9058776276414796
2023-12-07 15:46:06.323197,1.7855854183869706,-1.244394862550473,0.3483972321037852,-3.419751912442393
2023-12-07 15:46:06.754937,0.9462272829793592,-1.132725271439141,-0.4077662442410178,-2.091855152407128
2023-12-07 15:46:06.895120,-0.6396642857464359,0.0628942358770525,-0.8331822908160096,1.2419264112989523
2023-12-07 15:46:07.008642,-2.352626125635675,1.1482161496833987,-1.6407381218347077,4.760175283078536
2023-12-07 15:46:07.100422,-1.162775251274858,1.2073504953171978,-0.0133947160244775,2.8432085356200947
2023-12-07 15:46:07.197711,-1.152570470610799,1.67484068530014,0.4936457743638142,3.207376986959977
2023-12-07 15:46:07.472101,-1.4049114111117365,1.1443053991479275,-0.5520997076079334,3.2931186260300507
2023-12-07 15:46:07.857237,-1.7810285015701215,1.2843896848387364,-0.745443519691675,3.928682429186727
2023-12-07 15:46:07.922122,-2.316688683526226,1.5267655510960028,-1.0730255393938664,4.932225506492896
2023-12-07 15:46:07.995387,4.653829086868597,-2.802671739475977,2.114948762753148,-9.187139030390073
2023-12-07 15:46:08.024748,4.208772092485238,-2.052739995255149,2.3857886299562323,-7.883108805424843
2023-12-07 15:46:08.269418,-7.916942645125265,5.599096222741248,-3.178517802207846,16.872740604622066
2023-12-07 15:46:08.400940,-6.670087538797651,4.831681377435431,-2.5240217323169745,14.302867132930992
2023-12-07 15:46:08.565777,2.371824344995602,-1.436029086699098,1.138011286788394,-4.6833659995629375
2023-12-07 15:46:08.755678,3.393858082817117,-2.061639409828532,1.89890494477954,-6.931277255210905
2023-12-07 15:46:09.377353,0.3281642365451587,1.1376885918170676,1.7818041304670738,0.3872569343838747
2023-12-07 15:46:09.559542,-1.504498335729322,2.0160792963315104,0.33124712598993,4.108897849634748
2023-12-07 15:46:10.261452,3.209560111442712,-1.781654930173982,1.953419270664088,-6.399213606299655
2023-12-07 15:46:10.339011,6.419495477822635,-3.635773478964471,3.8331072655816745,-12.96017916585072
2023-12-07 15:46:10.475012,2.358914057350752,-1.256565953801639,1.4748343604794727,-4.62231659956234
2023-12-07 15:46:10.607524,0.4545754637103679,-0.2843598982556648,0.2862444488548882,-0.8739729053361874
2023-12-07 15:46:11.041386,4.533525739215903,-2.641220961210122,2.580703805096052,-9.150987288209878
2023-12-07 15:46:11.351735,10.023425375992131,-6.16363737445884,5.8348326926669145,-18.86934445840286
2023-12-07 15:46:11.603024,5.489426099919336,-3.4027900889685387,3.1886529026299275,-10.427543223068328
2023-12-07 15:46:11.830685,0.8748501116930335,-0.5700442064286114,0.4897446643085467,-1.739361659494011
2023-12-07 15:46:12.304679,7.63522031389696,-4.728340458859318,4.445781360926598,-14.50267779556699
2023-12-07 15:46:12.367106,7.197274478694702,-4.432440493448543,4.182907303233513,-13.563950914215416
2023-12-07 15:46:12.428971,-1.077537535196312,0.6968125287846346,-0.6691368305153417,2.224921910580184
2023-12-07 15:46:12.564853,-3.5630545856550806,2.2503537896198487,-2.1297274572880167,7.021704265265153
2023-12-07 15:46:12.612000,-3.04387919952164,1.9317352718025136,-1.826034656464912,6.0445620155588
2023-12-07 15:46:12.872365,-2.0823049256679296,1.314276832288667,-1.2567667694995068,4.119422443873567
2023-12-07 15:46:13.027018,-1.0139424659211196,0.6279162100962689,-0.6241944411557683,1.9790923384195367
2023-12-07 15:46:13.314279,-1.0904094179367698,0.6890687883316465,-0.6723779469627128,2.183003894127172
2023-12-07 15:46:13.385093,-2.429946036611176,1.515136468869798,-1.4566697986184662,4.720906542622254
2023-12-07 15:46:14.018712,-1.4525225074083197,0.9008677743036162,-0.8813245785951536,2.82043194315745
2023-12-07 15:46:14.397334,-0.1822585084221305,0.1588376785919705,-0.1477041567337551,0.5880620817369608
2023-12-07 15:46:14.437997,-0.8195476574022879,0.5173479069455892,-0.5121222754517077,1.6498824999404396
2023-12-07 15:46:14.635576,1.7741153570099917,-1.068416998080683,1.0033716881256665,-3.2064098618019377
2023-12-07 15:46:14.676455,0.7158222498661373,-0.390352464448187,0.3774540432428684,-1.094044167769729
2023-12-07 15:46:14.811175,-2.668351986683116,1.5299049725776537,-1.5623682320278296,4.614208532823953
2023-12-07 15:46:15.042755,-0.5840273216412115,0.22810944680217,-0.3375646519600648,0.5957687006524595
2023-12-07 15:46:15.211994,-0.9986527240643046,0.593368302716319,-0.6075844784283352,1.8436473753455889
2023-12-07 15:46:15.401921,-3.480191787544541,2.0720010005354896,-2.0475892959449906,6.327083544127973
2023-12-07 15:46:15.469682,-2.8929631070887587,1.6663791009669957,-1.6926493483672973,5.030905709753037
2023-12-07 15:46:15.485447,1.4067552841038695,-0.7858325860406637,0.7754920018108056,-2.274336528606251
2023-12-07 15:46:15.571972,3.5783833651085777,-2.000849390671616,2.0162899380577084,-5.864792742097497
2023-12-07 15:46:15.717968,0.107888811421888,-0.0676694956502287,0.0360653106946759,-0.1631233134069923
2023-12-07 15:46:15.866059,1.4351070954570004,-0.8100685385490893,0.7944515174332826,-2.3567767394906145
2023-12-07 15:46:16.086254,0.9643713409228666,-0.5161548125827448,0.5181356196813077,-1.4497100527356428
2023-12-07 15:46:16.108520,-1.0888765174879769,0.6021280287466807,-0.646944315631169,1.81615351915878
2023-12-07 15:46:16.183919,3.724360120518724,-2.038043299357988,2.089752928860964,-5.918846372226172
2023-12-07 15:46:16.256041,-1.087911035333662,0.5520066256627042,-0.633472470619758,1.6051446344418971
2023-12-07 15:46:16.346773,-5.295270847495055,2.7970805608501625,-3.0094897643958003,8.1014654644781
2023-12-07 15:46:16.461927,-0.7894325766065646,0.4549063629433494,-0.4798952968975575,1.4064444434412071
2023-12-07 15:46:16.927171,-5.387559114941974,2.80657199021045,-3.051106192571683,8.07600619521679
2023-12-07 15:46:16.954207,-7.5005010939496115,3.905639852377239,-4.237082306300223,11.218516857594857
2023-12-07 15:46:17.094663,-5.313722568690127,2.915110876083685,-3.045815383103621,8.586097808821275
2023-12-07 15:46:17.237077,-5.6913190301713,2.826805457221508,-3.186287492285861,7.946089742519475
2023-12-07 15:46:17.408863,-1.4372334891832106,0.4257480989574941,-0.7505168462570975,0.8243853970332954
2023-12-07 15:46:17.507374,1.0303380670298223,-0.5124489096570933,0.5487925133406605,-1.3884613244882107
2023-12-07 15:46:17.565795,0.0241795268903576,0.1059734716129117,-0.0395465548419758,0.5090526874452461
2023-12-07 15:46:17.734242,-4.451100234128591,2.168051218032968,-2.4852908117073347,6.043478919353043
2023-12-07 15:46:18.135048,-7.124763817402164,3.4048866088324967,-3.947534143403343,9.37049384525658
2023-12-07 15:46:18.321028,-1.875899956683073,0.8079238722861026,-1.0336613310492897,2.1261292441488755
2023-12-07 15:46:18.913416,0.8023097935670499,-0.3868086110035604,0.4206968281652248,-1.0202290976961517
2023-12-07 15:46:19.236333,0.5478075916152428,-0.2226638119750292,0.2702200575231686,-0.5077855054093781
2023-12-07 15:46:19.318821,-5.301007177327275,2.374885422827979,-2.901871315218486,6.314184821868005
2023-12-07 15:46:19.911896,-9.455744422383976,4.338255616803087,-5.184637085374994,11.658922784399936
2023-12-07 15:46:20.198669,1.052608262910283,-0.4162936616069599,0.5374728851897315,-0.967999780065716
2023-12-07 15:46:20.304822,4.36674524589983,-2.0158920527954063,2.3674132276914173,-5.372818429871995
2023-12-07 15:46:20.384648,-0.688557188199149,0.3032042631835923,-0.3927514077183416,0.8356933144019425
2023-12-07 15:46:20.444068,2.0994704171723915,-0.8398298591054829,1.0960740249561054,-2.0147818500918
2023-12-07 15:46:20.713026,1.071981806201797,-0.4796104978080465,0.5631765815971407,-1.2220068666977448
2023-12-07 15:46:21.040014,-4.064207044555406,1.6557600638369323,-2.185910351311266,4.153925482776429
2023-12-07 15:46:21.155464,-2.428868315710785,0.9724499648498424,-1.3092460995818254,2.427652658305472
2023-12-07 15:46:21.287062,1.6867784759757665,-0.7268889168022051,0.8913727645467038,-1.830795073373081
2023-12-07 15:46:21.444031,1.7920352210932426,-0.749798895769778,0.942898143392582,-1.8531143367592733
2023-12-07 15:46:21.496118,-0.6801324735222549,0.2864520871555155,-0.3822028554916137,0.7700220585294026
2023-12-07 15:46:21.637383,-2.522160598457948,1.057296492477652,-1.3691222098462523,2.7191305645565342
2023-12-07 15:46:22.371335,-1.667146309364416,0.7204987589024406,-0.9156902823341594,1.902852385967784
2023-12-07 15:46:22.436298,0.6436053455538274,-0.2189403157172707,0.3163741605103841,-0.4262575273658188
2023-12-07 15:46:22.574121,2.9026948491879168,-1.1150303061542406,1.5153141595737876,-2.6089988396626547
2023-12-07 15:46:22.609953,6.019784537536416,-2.304742804481265,3.1577739688471143,-5.423566472274851
2023-12-07 15:46:22.784885,-0.5051781770328903,0.1554488160850502,-0.2715493692464893,0.340177126390333
2023-12-07 15:46:22.828854,-7.605782303777823,2.7969651795292507,-3.994513843551075,6.4616926540748665
2023-12-07 15:46:23.008534,4.765952536972317,-1.7302562107974249,2.4744956999370644,-3.887068250798401
2023-12-07 15:46:23.196807,8.425687484019964,-3.000175627388439,4.371075394155626,-6.65604323622622
2023-12-07 15:46:23.304356,-3.1380606008176906,1.118877312856056,-1.6465190481763468,2.5418255951165523
2023-12-07 15:46:23.691693,-1.447127014431893,0.4906238960273836,-0.7596278889167416,1.087235075277282
2023-12-07 15:46:23.841519,2.3045667950909348,-0.761852287432251,1.172251991136681,-1.5430430495276255
2023-12-07 15:46:24.132536,2.104518504375767,-0.7673612673934561,1.0877517876291891,-1.7080198159314588
2023-12-07 15:46:24.191325,3.644423991276233,-1.3215600903559384,1.8909756740065564,-2.9569908602559654
2023-12-07 15:46:24.322004,2.1505670571451856,-0.7778428437430797,1.1110466857664414,-1.7199402456487514
2023-12-07 15:46:24.475410,-0.1773872652244641,-0.0715371053433041,-0.0693171897555755,-0.387111887057049
2023-12-07 15:46:24.589370,-0.1339721693923963,0.0523827521396354,-0.0811852696819406,0.1664219291419238
2023-12-07 15:46:24.657355,6.501843943814271,-2.029199219663477,3.3020578260446607,-3.921400375636912
2023-12-07 15:46:24.747671,1.7651055254277233,-0.5823857308129309,0.8975019727517836,-1.168478189410443
2023-12-07 15:46:24.859398,-6.502356944090933,2.107590510084172,-3.340889287382699,4.331675311352707
2023-12-07 15:46:25.102500,4.280682411326095,-1.3959108141396623,2.186801874657617,-2.8213915746588016
2023-12-07 15:46:25.341746,0.0107064712994671,-0.0709812481220798,0.0140500369160153,-0.2524585870930351
2023-12-07 15:46:25.699846,-3.968144924522593,1.1951785101476389,-2.018436228189964,2.274515056722086
2023-12-07 15:46:25.844635,7.840315492237154,-2.531849996399499,4.007443715993042,-5.096075103425703
2023-12-07 15:46:26.004661,-4.674529905299688,1.4761167172605238,-2.392624252315397,2.959858730099863
2023-12-07 15:46:26.201405,-9.061338026664645,2.811962813908261,-4.618513011395102,5.492174136633528
2023-12-07 15:46:26.403932,3.090594238473319,-0.9814047971734572,1.572096030583344,-1.91526518862734
2023-12-07 15:46:26.484074,0.5594812173348621,-0.0915214345261886,0.2581509091323171,0.0484874021723756
2023-12-07 15:46:26.530498,-1.423632633850841,0.4931812275863558,-0.7430996804598495,1.1122301972485693
2023-12-07 15:46:27.035062,-2.723966050302292,0.7743899443243714,-1.3739436006574186,1.3784756442446435
2023-12-07 15:46:27.317820,2.6691187336202207,-0.9054707795466874,1.3727521985744755,-1.893627073203864
2023-12-07 15:46:27.476128,3.2616343838839907,-1.0032891832324269,1.653133025142716,-1.8871776252304275
2023-12-07 15:46:27.503630,-7.275040174541377,2.2221720044465303,-3.698014310119152,4.266670173098455
2023-12-07 15:46:27.658220,-0.5755017440734361,0.1474130466434759,-0.289055783952013,0.2527635912358311
2023-12-07 15:46:27.976859,-0.8982701274394781,0.3509813259183528,-0.478860141754388,0.88326585670267
2023-12-07 15:46:28.102001,-4.32891549614208,1.532084983252892,-2.253678799329301,3.4393262008288046
2023-12-07 15:46:28.211849,1.784826327130947,-0.4721089805003526,0.8849439260249445,-0.6913980822041615
2023-12-07 15:46:28.238800,-5.968433974999804,1.5998484674180045,-2.9771584928161765,2.564668523356925
2023-12-07 15:46:28.269572,-5.077077688663046,1.4144462997721376,-2.5460154124339645,2.413037660927825
2023-12-07 15:46:28.309708,-3.8989777686995577,1.075973328844665,-1.9529125718191545,1.8183957882952453
2023-12-07 15:46:28.456350,-9.388236875000018,2.677063999623208,-4.720742179209786,4.689795157680028
2023-12-07 15:46:28.636478,-2.0598336573176823,0.6750881550278888,-1.0587965203677612,1.4281447323623064
2023-12-07 15:46:28.691483,0.7521923573082167,-0.1793165369548644,0.368084195433193,-0.1872877294129007
2023-12-07 15:46:28.844615,7.337784835154824,-2.102914217593104,3.6900191737748576,-3.643915225245945
2023-12-07 15:46:29.332631,8.566293076828817,-2.416078423817401,4.298497531399486,-4.096063514981195
2023-12-07 15:46:29.464097,0.2183481452355785,-0.0652740245396756,0.1100890221266441,-0.0841373677930922
2023-12-07 15:46:29.516101,9.651171612858215,-2.698395101908861,4.837549012768424,-4.519774146186947
2023-12-07 15:46:29.644374,6.879342263639166,-1.9342171610288303,3.4510920074204035,-3.25682899334504
2023-12-07 15:46:29.707289,-6.224288071972777,1.6598449297665214,-3.0995514136002966,2.6357448618941186
2023-12-07 15:46:29.877970,-4.432621947781755,1.1579265085534385,-2.2009975605383785,1.7856502654754838
2023-12-07 15:46:29.932911,-5.370778918800236,1.424670338916403,-2.672152043020125,2.2472409986670887
2023-12-07 15:46:29.969948,-2.3634155712758047,0.6086131307816659,-1.1706820181084456,0.9319147390078618
2023-12-07 15:46:30.024490,-2.818141687950545,0.7617203301044496,-1.4049152222928347,1.2561206197158368
2023-12-07 15:46:30.088470,-12.603022219538344,3.429737172571458,-6.292518169507796,5.58969233801312
2023-12-07 15:46:30.208086,-2.533127339253645,0.7017269433338669,-1.2666083591949011,1.204545303386504
2023-12-07 15:46:30.559845,14.10200115069544,-3.751296430700087,7.0225036769317,-5.813511137292156
2023-12-07 15:46:30.686546,12.199446544357762,-3.250012958150136,6.076663864978168,-5.044712057228232
2023-12-07 15:46:30.817148,1.6397310198983983,-0.4681034373068727,0.8263324757597591,-0.7789037170133274
2023-12-07 15:46:30.917201,-6.506947832492129,1.7116006155162178,-3.2325812741508915,2.6534644954083
2023-12-07 15:46:31.030299,-3.209917055307184,0.8421347414135274,-1.5928848474698314,1.3177957593259262
2023-12-07 15:46:31.340065,12.46521323591212,-3.3036839763838075,6.205270458835174,-5.083292903671696
2023-12-07 15:46:31.767189,16.797548614750585,-4.418072103808807,8.352760495099064,-6.7197739518511215
2023-12-07 15:46:31.954142,5.251348514662375,-1.3688258754822304,2.610019472953488,-2.0239874285817416
2023-12-07 15:46:32.286559,-0.9917539882054736,0.2768781500072083,-0.4943173389216285,0.5022013079503536
2023-12-07 15:46:32.551151,1.877520099503952,-0.4861706888379426,0.934211532224667,-0.6871222443932441
2023-12-07 15:46:32.781127,14.403538580303556,-3.8017877143909273,7.166376707290568,-5.813574236654662
2023-12-07 15:46:32.912950,19.956587605519104,-5.246529924629685,9.922970687646895,-7.980154390562143
2023-12-07 15:46:33.068075,5.502234055066327,-1.4578081260087452,2.740863069648237,-2.222053926107449
2023-12-07 15:46:33.177917,-4.945216250010689,1.251082538373791,-2.44288838142208,1.8151081080809903
2023-12-07 15:46:33.263473,-8.93694377051926,2.2998319278107844,-4.426899363873216,3.4156131816356723
2023-12-07 15:46:33.347588,-2.216462142502077,0.5546317872024619,-1.0916516153450282,0.8073824470465745
2023-12-07 15:46:33.746094,12.74035469969299,-3.3497733358128903,6.336185740878272,-5.08329949363854
2023-12-07 15:46:34.078149,8.388712742412762,-1.970270750558496,3.874168342023083,-2.6309024159211254
2023-12-07 15:46:34.220692,0.8518258083095162,-0.1908117084611601,0.3566361153563979,-0.2513371893773644
2023-12-07 15:46:34.427903,-0.6897545265059701,0.1502831601000938,-0.3118029837682008,0.1907754558763877
2023-12-07 15:46:34.546202,-4.819875545666124,1.1119102604455386,-2.209232294717579,1.468419771169012
2023-12-07 15:46:34.823969,1.476210579632511,-0.3616089593397112,0.70032476758823,-0.4941236288061501
2023-12-07 15:46:34.903871,4.006951065441218,-0.9416045339627374,1.8424846677687456,-1.259048942765273
2023-12-07 15:46:35.009895,5.79757307737317,-1.3959973113178854,2.7488184784074248,-1.8860976610178948
2023-12-07 15:46:35.216629,2.8764710566145344,-0.699535647233009,1.3704974522636315,-0.950672172006377
2023-12-07 15:46:35.352800,-14.62341685719132,3.48636750841343,-6.917547345350823,4.679980692711879
2023-12-07 15:46:35.500659,-7.595746941616494,1.7966426861976614,-3.5695028231405783,2.401655075127489
2023-12-07 15:46:35.832933,5.5779026086515255,-1.3422847760597283,2.642797524917426,-1.8134778341991271
2023-12-07 15:46:35.960047,-7.114792603593781,1.666627005964158,-3.3079390236520303,2.2175063942177533
2023-12-07 15:46:36.415781,-6.0970054109394205,1.3979540595951332,-2.7694351619916766,1.8407392084912648
2023-12-07 15:46:36.512888,5.825470034709952,-1.4032145664401685,2.76453523625694,-1.896835238984322
2023-12-07 15:46:36.959158,2.0172163336994124,-0.4640075726815093,0.898073807285658,-0.6164986365437265
2023-12-07 15:46:37.233459,-0.8075822160574244,0.179522466406975,-0.367819650287248,0.2295824801492461
2023-12-07 15:46:37.630903,-2.0703803099510507,0.4453027277124273,-0.8847101311390272,0.5650254884836206
2023-12-07 15:46:37.803738,-4.051443328080436,0.9525579654491482,-1.897117202255264,1.2673696619929933
2023-12-07 15:46:37.934111,3.33900630656899,-0.732204672428556,1.418346578109185,-0.9489527185885784
2023-12-07 15:46:38.185958,-0.6351615006880675,0.1107431302703201,-0.2234598535887341,0.119725290714403
2023-12-07 15:46:38.416026,-11.992347976119827,2.700173348626679,-5.318452795978906,3.525917861119477
2023-12-07 15:46:38.677896,-0.9884434810139135,0.2325098597137891,-0.473118961410909,0.305623779759996
2023-12-07 15:46:38.753433,6.00928733956719,-1.395261920721447,2.738802860746977,-1.856393379689382
2023-12-07 15:46:39.097492,-5.511154089456388,1.217241250799371,-2.3978317294621534,1.5711566176776306
2023-12-07 15:46:39.380645,-4.178701474893566,1.0083070507418088,-2.011133054875399,1.356189517858267
2023-12-07 15:46:39.421398,7.188499580754604,-1.549522775831385,3.01361547364691,-1.987403180630385
2023-12-07 15:46:39.673784,8.633298825438946,-1.938082968048156,3.794179120936247,-2.536293176363828
2023-12-07 15:46:39.727904,0.8433689658190803,-0.1845715331361578,0.3501052257392787,-0.2441284527543344
2023-12-07 15:46:40.039276,-3.1725246758195595,0.7255046294251658,-1.438747867792596,0.9492906914658954
2023-12-07 15:46:40.381261,-1.8354625983131387,0.3917641445290334,-0.7739408725295968,0.4916659582830892
2023-12-07 15:46:40.517357,-7.344888099716101,1.5848824848666123,-3.104652739307795,2.020980086915572
2023-12-07 15:46:40.638419,-7.992890595473033,1.7237493089607994,-3.375037681493789,2.1977380345100483
2023-12-07 15:46:40.838244,0.5296950127205581,-0.1126258804053802,0.2110656473701327,-0.1506475479289324
2023-12-07 15:46:41.216395,-1.5857771004524697,0.3667119702826526,-0.7307981129937151,0.4777166686547023
2023-12-07 15:46:41.351606,-8.577644125531183,1.798379866622522,-3.5047915440324444,2.25778607920998
2023-12-07 15:46:41.566576,-6.266821379664631,1.300193145094258,-2.531402457124965,1.620273326034669
2023-12-07 15:46:41.734625,-2.7899011322410496,0.649892149508667,-1.288497265723031,0.8547420623936899
2023-12-07 15:46:41.795995,-7.361658632501475,1.4942475810145055,-2.897452280810086,1.8396644356468776
2023-12-07 15:46:42.050965,-8.773729219550784,1.6907475453395313,-3.250593969211752,2.0183077553702105
2023-12-07 15:46:42.201624,-3.7502515966120025,0.7510101077309222,-1.4546745326194923,0.9120435937509148
2023-12-07 15:46:42.867692,-2.0185699899874625,0.3807971149919881,-0.7319790203160792,0.4402679505328651
2023-12-07 15:46:42.957141,6.3519446699045625,-1.3173875924466607,2.5551745442924623,-1.6607819792216365
2023-12-07 15:46:43.010997,10.608439694580444,-2.0954476035642293,4.036444028801009,-2.562739408344674
2023-12-07 15:46:43.201446,1.3446235796754265,-0.308457023523032,0.6060134374338505,-0.4184021175906522
2023-12-07 15:46:43.345754,4.485588838324197,-0.9436925381473814,1.835492254405368,-1.2031599802323745
2023-12-07 15:46:43.562416,4.180528070114582,-0.873785349998776,1.6985484669995377,-1.1113578758697196
2023-12-07 15:46:43.630344,-7.996719625394321,1.4601616811606022,-2.7773795753282355,1.6781412528288535
2023-12-07 15:46:43.985327,-4.036324273459727,0.7948481834749693,-1.5297795854416825,0.9531458833819316
2023-12-07 15:46:44.587943,-2.3584880857500385,0.4492179693658321,-0.8586073724169225,0.5214670923600256
2023-12-07 15:46:44.935667,-5.92532563780189,0.983149462379992,-1.8352935062757985,1.0464357489566931
2023-12-07 15:46:45.217730,5.406240648398794,-1.1095019333735352,2.154581785149967,-1.3957094394827352
2023-12-07 15:46:45.359672,8.408213070144637,-1.6422659134640356,3.1639225839106406,-2.000837223495464
2023-12-07 15:46:45.587330,2.4551824791244714,-0.5491526368109896,1.0829576315730038,-0.7306864807581873
2023-12-07 15:46:45.976885,5.131409508285512,-1.000635839837588,1.9305318207639204,-1.2244525268081528
2023-12-07 15:46:46.160496,-1.194391486284289,0.1375585643329779,-0.2286685669096801,0.0797025349635441
2023-12-07 15:46:46.345367,-9.8356786550164,1.7281571715100208,-3.258285871651549,1.931126722717647
2023-12-07 15:46:46.496492,1.28196201408417,-0.2358295535403911,0.457499214501933,-0.2911462639922698
2023-12-07 15:46:46.628587,5.076226821966128,-0.9779895427850058,1.88644737467774,-1.1899738665604211
2023-12-07 15:46:46.871044,-6.49786370364212,1.0753398287824296,-1.999711216669828,1.1396432705923751
2023-12-07 15:46:47.018462,1.4673485327885487,-0.2323988847385324,0.4411343207140791,-0.2589544952542242
2023-12-07 15:46:47.211806,11.029452941932902,-1.912213929344021,3.616230319514152,-2.152080851088139
2023-12-07 15:46:47.308069,-5.259637251349371,0.9079990089070106,-1.6981840928847836,0.9910813464014896
2023-12-07 15:46:47.528147,-12.668586235898877,2.2642406406937976,-4.278844351519718,2.563741647616387
2023-12-07 15:46:47.912233,1.4366012193315187,-0.1989184197989131,0.3714992844468012,-0.1998636599351416
2023-12-07 15:46:48.081264,5.503611164925534,-0.9245709056682684,1.747349297087372,-1.027109564560089
2023-12-07 15:46:48.378334,1.4295807574721475,-0.1901442882725353,0.353950900043757,-0.184641894329282
2023-12-07 15:46:48.475709,13.142987187559443,-2.202911080432561,4.142919286890784,-2.415921829814795
2023-12-07 15:46:48.533430,20.60471557773352,-3.444622130267557,6.466628157988497,-3.758570024799344
2023-12-07 15:46:48.678122,6.659865730243992,-1.081061120919668,2.030388824401518,-1.1668045458679672
2023-12-07 15:46:48.789241,-0.9523365453329982,0.2201031535805674,-0.4153098410680599,0.2691270893883337
2023-12-07 15:46:48.865526,-3.064082537615376,0.5420021027092737,-1.006104001651605,0.5910197060078266
2023-12-07 15:46:48.926964,-3.2407657621768906,0.5324870709885214,-0.9735377533484164,0.5465137939212193
2023-12-07 15:46:49.095988,4.076077888835272,-0.5490399628748986,1.0016248349237364,-0.5048219068359023
2023-12-07 15:46:49.217936,-6.332048943277967,0.935290380309936,-1.6854196500788932,0.8841477922419151
2023-12-07 15:46:49.274462,-8.7179955497281,1.135674302972023,-1.9888736437272967,0.9295610051753868
2023-12-07 15:46:49.340567,7.22103088360722,-1.082197351369069,2.0048728437172194,-1.0909111084647265
2023-12-07 15:46:49.740948,-3.598908686496267,0.6888370895271049,-1.2968930754605683,0.797423119460883
2023-12-07 15:46:50.145179,-11.005019445548246,1.6933396531820686,-3.093416937560864,1.6848789834427451
2023-12-07 15:46:50.359586,-0.2731101765937508,0.0865716913011993,-0.1511643948080827,0.1031977171935624
2023-12-07 15:46:50.762072,-7.149815119584394,1.135090605550533,-2.077494693820068,1.1529588668984556
2023-12-07 15:46:50.907795,-11.654618960773224,1.8007373304323944,-3.291831416051088,1.799140624381577
2023-12-07 15:46:51.144356,-9.966056309909224,1.5572521995920456,-2.84907330282304,1.5681200194822116
2023-12-07 15:46:51.309289,-15.294245342564444,2.290480741202163,-4.164913496188798,2.2270668629100814
2023-12-07 15:46:51.424213,-5.588877630224452,0.8408014618074523,-1.511635201012041,0.8032796710363194
2023-12-07 15:46:51.546882,6.482572678790716,-0.9078130286562196,1.6668118746333422,-0.8613109960655746
2023-12-07 15:46:51.884279,-0.8361199572653379,0.1323349661656276,-0.2144841600563287,0.1082927158669379
2023-12-07 15:46:51.960660,-6.433395530193522,0.9551667550253956,-1.714083565188541,0.9030371995930346
2023-12-07 15:46:52.331973,-7.170458112072469,1.108668688816515,-2.011643915433937,1.0953797858765666
2023-12-07 15:46:52.476728,-7.818284087722557,1.141290205613644,-2.044997430466606,1.0649942508934689
2023-12-07 15:46:52.724726,6.644587947924337,-0.9720464423141878,1.803760498961382,-0.964952302131328
2023-12-07 15:46:52.887286,14.633468520657226,-2.050284897231112,3.7312853865977016,-1.9126941033932177
2023-12-07 15:46:52.999077,5.306954469161187,-0.7295278323821006,1.3442003586360842,-0.6862015068866162
2023-12-07 15:46:53.213752,1.468577991115019,-0.2160007584507486,0.4291254000784985,-0.2401796218408813
2023-12-07 15:46:53.469182,-6.327807768626957,0.8949446222323986,-1.5815791100525172,0.7984490714693838
2023-12-07 15:46:53.634445,-5.583909869338467,0.7821726757850016,-1.3739725390747404,0.6857940701451565
2023-12-07 15:46:53.914731,9.069357471959856,-1.254103660704745,2.2914957808023177,-1.1663894191962203
2023-12-07 15:46:54.043154,0.7620767327621488,-0.0609207141816611,0.1279058952275786,-0.041260042621913
2023-12-07 15:46:54.212196,-3.6760380114712192,0.5333260544700874,-0.9313860167728052,0.4754802841920218
2023-12-07 15:46:54.300128,11.159212465842408,-1.55433388778448,2.837744014014111,-1.4505446987167334
2023-12-07 15:46:54.403270,9.589937735671056,-1.2946533554842334,2.353005452805428,-1.1714034908086706
2023-12-07 15:46:54.440237,5.299378509279075,-0.6580443598132436,1.190387413005155,-0.5507425124535535
2023-12-07 15:46:54.720570,3.403303724345981,-0.4146499099043859,0.7614674676070046,-0.3505532911428262
2023-12-07 15:46:54.831556,-4.89595323492255,0.705474824054834,-1.2397777517338244,0.63337320131544
2023-12-07 15:46:54.969090,2.2825646559504027,-0.2630483681896802,0.4913480880975525,-0.217503356554467
2023-12-07 15:46:55.362217,15.592812409809843,-2.031502631687085,3.639737681600949,-1.741622407560696
2023-12-07 15:46:55.508297,9.746351105037364,-1.2309270871928866,2.2044063222106,-1.026130308878793
2023-12-07 15:46:55.698907,-4.033363709308576,0.5591654916096809,-0.9633042479376384,0.4718574161311513
2023-12-07 15:46:55.796909,-4.614124134402492,0.6198943409695011,-1.0636099557290248,0.506096623784837
2023-12-07 15:46:56.221421,2.01885368665772,-0.2461004036020738,0.4714113435922153,-0.2237095671337609
2023-12-07 15:46:56.253207,1.864033232101685,-0.2446279249040911,0.4777491109242585,-0.2434103685495357
2023-12-07 15:46:56.321264,-5.338515400744996,0.68586755424001,-1.1663243003759836,0.5294234564014689
2023-12-07 15:46:56.704509,-8.826127081412311,1.146769681786036,-1.985306723862463,0.9237083009078184
2023-12-07 15:46:56.848853,3.378891351311572,-0.3885859700855009,0.7092176765162219,-0.3056691022171742
2023-12-07 15:46:56.955523,7.4656328360858835,-0.901185062440221,1.6082991689162005,-0.7144929905654834
2023-12-07 15:46:57.120975,-7.098908595754618,0.9237786356722308,-1.5904032520081577,0.7381375448146092
2023-12-07 15:46:57.214144,-13.487343802454578,1.7312657961909756,-3.008929605366058,1.3888828728497824
2023-12-07 15:46:57.352605,-16.744812382234535,2.157242379811924,-3.7638783634762447,1.7483935189057325
2023-12-07 15:46:57.653308,-9.249934855445993,1.2008505303687864,-2.078957934987527,0.9670110962865436
2023-12-07 15:46:57.822327,11.581077829603364,-1.4404327068847964,2.5659974625577,-1.1716076701056024
2023-12-07 15:46:58.134046,12.539102189963147,-1.558743871292622,2.772744086341813,-1.263894429973199
2023-12-07 15:46:58.267905,13.798400103149406,-1.714021046361305,3.043895319491472,-1.3846937410895823
2023-12-07 15:46:58.450650,18.963343794745413,-2.3726930514424973,4.204111473762737,-1.9223721276518309
2023-12-07 15:46:58.525128,-1.868282270188193,0.2494117539669109,-0.3977108684301232,0.1785947402854085
2023-12-07 15:46:58.608587,-8.379424757347754,1.0772639782414242,-1.854467538340036,0.8513886395194087
2023-12-07 15:46:58.716757,10.533972129823397,-1.3013501213561138,2.319260165346158,-1.0522484399387066
2023-12-07 15:46:59.227287,4.8433890952482965,-0.5662736291855205,1.0203012747607627,-0.4417081257414494
2023-12-07 15:46:59.774444,-10.842791034248618,1.4126980980175354,-2.4550138830760764,1.1491741212015432
2023-12-07 15:46:59.853302,-4.795157380708116,0.6230231796173341,-1.0555485635080233,0.4837471454278217
2023-12-07 15:47:00.081994,-1.5670601368931996,-0.2147693360094516,-0.8429556110195002,0.1785876289358076
2023-12-07 15:47:00.317922,-11.93114186447722,0.8230233828842296,-3.506486064177428,1.1431057087709502
2023-12-07 15:47:00.870541,-9.792890000837568,0.8815597275222438,-2.6096269159709164,0.920415418559577
2023-12-07 15:47:01.054133,9.9412548755498,-0.8667394335530505,2.647210177050052,-0.91353235196106
2023-12-07 15:47:01.134655,15.33153566864307,-1.4667465208004593,3.949140093129775,-1.40850808621092
2023-12-07 15:47:01.328203,2.8892036312859064,-0.4361565778039255,0.5542182790995374,-0.2482560471783621
2023-12-07 15:47:01.425233,6.935446946429033,-0.859804876943557,1.46944145519701,-0.6016233877462214
2023-12-07 15:47:01.512761,8.5361656346107,-0.953021875778131,1.9146198938465493,-0.7453794158455842
2023-12-07 15:47:01.762511,-5.764918295945887,0.106863067801865,-2.0931904410261626,0.5877340847079359
2023-12-07 15:47:01.844099,1.2354539233153796,-0.823304328060411,-0.5641621690474119,-0.0484495602551988
2023-12-07 15:47:01.933886,11.138434982364206,-1.53409032487709,2.309272519183456,-0.9881619789874968
2023-12-07 15:47:02.072547,6.464406666415369,-0.606998811395973,1.7765194745412862,-0.6108711639855616
2023-12-07 15:47:02.171129,3.943119561888282,0.80621272704396,2.5005179736767063,-0.4543331784434133
2023-12-07 15:47:02.359673,5.300237506096627,1.04959245085163,3.1888456922487767,-0.5829245622303012
2023-12-07 15:47:02.444879,19.4049017534797,-1.762645460485426,5.2743505673142215,-1.825794511250574
2023-12-07 15:47:02.551634,15.804760055076397,-1.257297889531123,4.640436346968223,-1.5260376163651688
2023-12-07 15:47:02.615671,-2.847455618924229,1.7610668102246236,1.1018472659641565,0.1547966595284244
2023-12-07 15:47:02.860510,5.0800213089860895,0.2651335491745672,2.267592126172548,-0.526708226863934
2023-12-07 15:47:03.104734,3.447759036220605,-0.220836591677468,1.0096217522831257,-0.3158714770509046
2023-12-07 15:47:03.676824,-3.625138544326621,-0.2612337727296247,-1.793882244273539,0.4143784616893958
2023-12-07 15:47:04.221869,3.671448327750174,-1.8775646599876767,-0.9435684893896772,-0.2096146678978389
2023-12-07 15:47:04.581750,-1.9485898514236657,-0.0385461214859986,-0.917455446585176,0.2356812073180903
2023-12-07 15:47:04.688615,-0.5466103287533589,0.82728406680687,0.725268688627449,0.0177098747421738
2023-12-07 15:47:04.803489,-1.4018464087926354,0.3404678554793432,-0.1892487213423859,0.139819024433528
2023-12-07 15:47:04.891502,-14.51831042159304,1.376016276758931,-4.192567674792935,1.444122010764085
2023-12-07 15:47:05.051808,-8.746818178526883,0.9278365349603496,-2.482272524453496,0.8826805724313461
2023-12-07 15:47:05.142046,1.7998491295964114,-0.3103240593050229,0.2099294551105462,-0.1284334748659327
2023-12-07 15:47:05.254101,8.63482710378266,-1.807418333575885,1.020928779462227,-0.7128648538497838
2023-12-07 15:47:05.359290,5.862146413064001,-0.7657166837336744,1.302100877275107,-0.5254717722734069
2023-12-07 15:47:05.386291,-14.914906702118826,3.978949803809906,-1.0905266362445063,1.2719085587329828
2023-12-07 15:47:05.456004,-18.22032525586093,4.464921715687565,-1.9768082794706348,1.6161267232079233
2023-12-07 15:47:05.484898,2.607348381652883,-0.6145098222752129,0.2289480849748051,-0.2039489745011619
2023-12-07 15:47:05.629542,11.993465300936329,-2.806159256448423,1.410609085490295,-1.046104137146218
2023-12-07 15:47:05.829594,1.0271896137733425,-0.5224414501346225,-0.3056280151045999,-0.0414191022679597
2023-12-07 15:47:06.073792,-5.355646924738323,-0.1372317069695413,-2.3844014728636744,0.5993220967412274
2023-12-07 15:47:06.385265,0.6015264227017973,-1.126017748376638,-1.2807406515076234,0.0637532794190431
2023-12-07 15:47:06.742000,-0.6316394066698592,-0.6321358506168898,-1.0251743932967423,0.1250226612387962
2023-12-07 15:47:06.876556,-1.0896010487819985,-2.433251663243416,-2.9200287912050458,0.2056417704358526
2023-12-07 15:47:07.082237,9.965329532858384,-4.33110152752205,-0.780346951688282,-0.8195013890004558
2023-12-07 15:47:07.652759,13.42330312573534,-2.2164025388978783,2.986904108352876,-1.3004134166117072
2023-12-07 15:47:07.679784,10.697965972401608,-1.077780702597961,3.319151468183251,-1.1069071270048636
2023-12-07 15:47:07.839161,2.9803122760566643,-1.0424432065731366,-0.0869271429577899,-0.221367385593285
2023-12-07 15:47:08.137488,-9.12026493722581,0.7969872463590447,-3.2024007501038843,1.0220571229041466
2023-12-07 15:47:08.192087,3.648794751286101,0.0127452727328201,1.6001468653522783,-0.3990603827598267
2023-12-07 15:47:08.363886,11.891194410570732,-0.5296126254058637,4.596241041387269,-1.3008334791573757
2023-12-07 15:47:09.097840,-14.828860077376495,3.096378024725208,-3.073498483020312,1.532654170146276
2023-12-07 15:47:09.124842,-21.12991805076797,3.6332670286949473,-5.339593161795127,2.239756040537696
2023-12-07 15:47:09.177563,-7.278308984729245,0.993583935352458,-2.3363600690464383,0.8382250253234982
2023-12-07 15:47:09.440343,-11.225420078402774,2.200574215383217,-2.712051533775369,1.2194746823738492
2023-12-07 15:47:09.609734,-9.501314520153931,5.05982393172371,1.6545583317237909,0.7825923068849745
2023-12-07 15:47:09.757525,-4.7126106055021175,2.571755979611225,0.7928656319736191,0.4123370945708302
2023-12-07 15:47:09.829558,-8.455919153338327,-1.4455197601933512,-5.891807627954345,1.1699298775757307
2023-12-07 15:47:10.111037,-1.585486234190979,0.6419477595173035,0.240011666061356,0.1123985752512579
2023-12-07 15:47:10.238678,4.548779514774547,2.75908077555007,5.998809431278268,-0.8455636604052448
2023-12-07 15:47:10.328745,2.029761842642834,0.1073340251288636,1.3651203086293675,-0.2972978223599319
2023-12-07 15:47:10.444112,-5.287856295888404,-0.1650260672698432,-2.840605430821352,0.6940193071586712
2023-12-07 15:47:10.603437,-5.900905030368865,0.9460082462724976,-1.926078124517775,0.7165371564989621
2023-12-07 15:47:10.789408,16.621754921331235,-3.908313051264151,3.3526771281361945,-1.7505838038827088
2023-12-07 15:47:10.908553,9.428961074535492,-2.7790410257058813,1.3165089466714472,-0.9654562746663669
2023-12-07 15:47:11.045533,-20.40787089662514,6.126262319324351,-2.8111054180916417,2.1493850838673203
2023-12-07 15:47:11.449105,0.2460702718637044,0.8221414491058716,0.95159239451999,-0.0406058215624036
2023-12-07 15:47:11.792128,14.767521058869647,-4.105256801965174,2.404457019739348,-1.5472699354081767
2023-12-07 15:47:11.905310,-4.637618127730776,3.239114096281222,1.697044030322773,0.3438045220361351
2023-12-07 15:47:12.057770,-9.000871338102428,0.332220014922615,-4.33610194474924,1.1798047989782467
2023-12-07 15:47:12.267978,-9.097073990790186,-3.474686540011992,-9.26808321514309,1.530438479351549
2023-12-07 15:47:12.448712,0.4822077023956298,-2.4557123468439848,-2.4914944143409063,0.0845675958189365
2023-12-07 15:47:12.518235,5.196236688177715,-4.494579437671238,-2.598988937701554,-0.3620420023845797
2023-12-07 15:47:13.033397,-4.565897774336517,-1.1373385887001932,-4.129790312848623,0.7775736918984493
2023-12-07 15:47:13.198958,4.09120605022589,-0.0040103909218366,2.3290967104756337,-0.5612064563910109
2023-12-07 15:47:13.231867,2.3873485894269586,1.9829891187980144,3.70873547611985,-0.4545163194286324
2023-12-07 15:47:13.310755,-2.1916996115597884,5.005942359248547,4.864704335274252,-0.0519706303280855
2023-12-07 15:47:13.379255,11.873885853077583,-1.0363781537413983,6.009848122001964,-1.6898850313451337
2023-12-07 15:47:13.576099,4.791606586403643,2.8219325385923497,6.680449783638029,-0.9800916055723964
2023-12-07 15:47:13.685991,-8.540769937074367,7.89321253383351,4.856548657251399,0.6091376106228605
2023-12-07 15:47:13.777162,-7.643589086819873,2.7271537776905226,-1.1332793754803838,0.9146704984219656
2023-12-07 15:47:13.809090,-5.671338431895691,5.783130889932607,3.6911352898864935,0.4116119329412456
2023-12-07 15:47:13.999270,-5.375989435266559,3.892150510814312,1.4823627697372723,0.5276976778280911
2023-12-07 15:47:14.236135,-8.242264524237362,-2.106980518115736,-7.769218936457758,1.4492383792872827
2023-12-07 15:47:14.388427,-2.6980209387378142,0.307871885024948,-1.4963734537356237,0.4483282542002446
2023-12-07 15:47:14.681966,-2.266475446428681,-1.801308436625515,-3.9379248420165305,0.5710508075009059
2023-12-07 15:47:14.915154,-15.260161440358608,2.480391016733347,-6.6647444309200505,2.2002686676983005
2023-12-07 15:47:15.273286,-6.100095279677024,6.238351554389315,3.988603846738328,0.4419301426912544
2023-12-07 15:47:15.712505,13.673374335210925,-4.480342864287013,3.077853328800704,-1.7341157682798216
2023-12-07 15:47:15.901418,5.386298503491967,-4.146031506037343,-1.8235099409557567,-0.4633073701450829
2023-12-07 15:47:16.523416,-4.675158113397289,-0.4120774234947774,-3.399944638653308,0.7614956310790635
2023-12-07 15:47:16.617189,5.106056610728085,-3.850597756656682,-1.5116103381466066,-0.469331927116684
2023-12-07 15:47:16.800589,3.944840222616453,1.0449403007660294,3.7930804914658647,-0.6731366083620746
2023-12-07 15:47:16.963683,2.4270417367589445,2.12633605545121,3.995129808551845,-0.4863236037035585
2023-12-07 15:47:17.364138,11.52955810683554,-2.59179024702162,3.769112307382861,-1.489246202109458
2023-12-07 15:47:17.412248,1.9719883191672536,-2.9922627879974404,-2.5394344022699946,-0.0289945775090918
2023-12-07 15:47:17.755389,-3.66121586783418,-3.889721245144645,-7.057465557683765,0.880120910757105
2023-12-07 15:47:17.811345,3.449450737448361,-4.4994562596414935,-3.206330754444011,-0.1940096980922726
2023-12-07 15:47:18.279143,-2.5271483004206066,-3.758050815945201,-6.152160651691951,0.6893273582115975
2023-12-07 15:47:18.338597,-1.5653705647993252,-1.3099130764016442,-2.66326320623916,0.3787023835391623
2023-12-07 15:47:18.448557,8.776104232844338,0.9663077132677822,6.934274851581004,-1.4515571354180152
2023-12-07 15:47:18.551523,-1.4643591839686854,1.250172031353221,0.568537588597026,0.160740991951449
2023-12-07 15:47:18.797196,-20.12114246328848,1.584473998374793,-11.53306794544982,3.1717037252253872
2023-12-07 15:47:19.054116,-4.33468194215074,-2.341614866785525,-5.736096149993691,0.8987071901231681
2023-12-07 15:47:19.204686,17.57650554562779,-4.338186749671723,6.579261408193493,-2.5288529875767054
2023-12-07 15:47:19.454802,-2.3007007157140014,3.769998836973163,3.0237449173474227,0.1197253085098349
2023-12-07 15:47:19.498177,-6.308042802226523,8.359351098553061,5.964062218282083,0.4197121478661115
2023-12-07 15:47:19.595682,14.555189961101998,1.354128147440038,11.678283057136143,-2.5046590934940194
2023-12-07 15:47:19.802977,-1.0076687347473974,-2.343163949000927,-3.4362510438091545,0.3429713716519444
2023-12-07 15:47:19.877512,-13.9997037979957,2.777082232601029,-6.213680862369784,2.1377118274555023
2023-12-07 15:47:20.184702,2.325380684250596,2.3187341839101125,4.269625039017912,-0.5047439074500534
2023-12-07 15:47:20.277349,4.72365966046827,-2.7456538435546283,-0.1046773015977364,-0.5546448205411434
2023-12-07 15:47:20.311618,-3.588491480017252,-2.595018714085271,-5.366968392440923,0.7596118090272601
2023-12-07 15:47:20.559353,1.9031124458665645,-1.6057957850172486,-0.4618346238799214,-0.2120069259863186
2023-12-07 15:47:20.629236,6.802251849449311,-0.311871166046379,4.313018324709223,-1.087870713259971
2023-12-07 15:47:20.851698,0.1240852824208741,0.3894921511052608,0.6517166161018824,-0.0455819396502767
2023-12-07 15:47:20.988687,1.885030773606004,-1.28301706902461,-0.1883087181992574,-0.2100687951943031
2023-12-07 15:47:21.311386,1.208033296773048,3.1135333948420123,4.360935811732221,-0.3546302116841898
2023-12-07 15:47:21.454139,-7.475193983763044,5.3594502204123495,1.0094477048850223,0.94646439377877
2023-12-07 15:47:21.519283,3.0184743434770684,-2.6624635269775294,-1.0665492392483675,-0.299722282004649
2023-12-07 15:47:21.782279,9.115647123371271,-1.130272051420004,5.187712703276033,-1.4707200611069082
2023-12-07 15:47:21.981563,3.060161444465778,5.536072413142065,8.940556917874918,-0.919988542590975
2023-12-07 15:47:22.517272,4.340847656719308,0.7440040782343591,3.959496234376314,-0.7681901273694133
2023-12-07 15:47:22.934328,-8.262882112565139,4.8087654285169394,-0.1341140589929682,1.1045081448320375
2023-12-07 15:47:23.340623,-14.319917568272208,11.538220728889524,3.7298220591753353,1.6432247704607328
2023-12-07 15:47:23.532209,3.1017367974605023,1.860436998077216,4.491644480171044,-0.65081430463436
2023-12-07 15:47:23.643775,-0.8420409202744488,4.063310469055947,4.346626409395623,-0.1350692246327096
2023-12-07 15:47:23.863803,-9.55553747931486,13.241798779477476,9.214562319690929,0.6943559559398648
2023-12-07 15:47:24.023108,7.839962713500181,1.3934352792827025,7.386915173789673,-1.4479220334928495
2023-12-07 15:47:24.266713,6.429898146025156,-6.169960137845563,-2.7967802242555675,-0.6454860484231495
2023-12-07 15:47:24.385881,-5.611668448083819,1.7614896553206143,-1.9652777523542724,0.8800396606547518
2023-12-07 15:47:24.458414,6.219864390073606,3.413161632027109,8.528999466554064,-1.2863415845134232
2023-12-07 15:47:24.798728,2.8931529703133245,1.2714342142965582,3.5990700443922696,-0.5649568748165059
2023-12-07 15:47:25.547020,-6.992031946515043,2.8225206955770026,-1.6292369430117972,1.031665646892384
2023-12-07 15:47:25.612393,-3.217396042347268,1.024945221050135,-0.7734116388765585,0.3377445051270394
2023-12-07 15:47:25.672409,-9.164011639791934,-3.859651519175322,-10.452393866257898,1.4345270429890755
2023-12-07 15:47:26.059416,-3.282518971545936,-5.485851760960122,-8.867829924232186,0.902018520617986
2023-12-07 15:47:26.213916,7.429602776142842,-7.037263579849651,-3.7213656898059977,-0.4237742709070801
2023-12-07 15:47:26.313462,8.237518898163904,-9.845579055146908,-6.444461650620732,-0.39321190584213
2023-12-07 15:47:26.382358,9.2330033608253,-8.305090256034172,-4.162818802209585,-0.5324644448531769
2023-12-07 15:47:26.408504,-1.032954369820613,-6.66545453111412,-9.033442691509652,0.783130755809787
2023-12-07 15:47:26.733406,-5.178084583717695,-2.9766953581986364,-6.783214268056945,0.8397757917620308
2023-12-07 15:47:26.864322,-6.422982682517361,6.063886365974722,3.847969745106981,0.1135532331096519
2023-12-07 15:47:27.092495,-2.9409399713203923,3.7700058705076,3.0962399693671747,-0.0683151195588029
2023-12-07 15:47:27.304246,6.695886338626496,-3.33938265142954,0.3783099989089539,-0.6449996759266658
2023-12-07 15:47:27.387197,-10.402459818717242,-0.1288748721513321,-6.567636365705302,1.2436855820467476
2023-12-07 15:47:27.433421,-4.475449886491407,-0.6258282370172245,-3.220204130965112,0.4549701072331671
2023-12-07 15:47:27.485954,17.011339925852575,-0.7506173460658746,10.06475611370746,-2.125283994296228
2023-12-07 15:47:27.545255,-1.7429784347734831,3.296980603174854,2.7267016048775257,0.0702752201800475
2023-12-07 15:47:27.640356,-6.850294345469176,-1.5377148880356863,-6.185230552934968,0.979055850900398
2023-12-07 15:47:27.684957,2.482155833260059,-2.383762833757936,-1.0817406217333183,-0.216903196483134
2023-12-07 15:47:27.858108,0.9515677336934704,0.3913928178550929,0.7700194161227158,0.01481528672981
2023-12-07 15:47:28.433025,3.449851621700872,-5.506953906167342,-4.945242833741754,0.2090942181446844
2023-12-07 15:47:28.491122,2.0840949738758736,-4.645718697243529,-3.7652693558560255,-0.1422907460716448
2023-12-07 15:47:28.803996,5.588211976215941,3.25284096822131,8.02777350691769,-1.163052045220932
2023-12-07 15:47:29.083143,3.06272689113309,4.805416039579608,8.07679298981841,-0.8583805320285898
2023-12-07 15:47:29.170187,-5.113440365753148,4.255946556548102,2.7570417494172474,-0.0421932024624354
2023-12-07 15:47:29.418196,-0.0722904732465462,1.8265339749091003,2.074981688242773,-0.0639617965085909
2023-12-07 15:47:29.562066,3.6934904918953193,-5.70715700444444,-5.602691695228526,0.4513614264710024
2023-12-07 15:47:29.858707,7.671421620858088,-7.575618289343026,-4.860019824187375,-0.1271825141799055
2023-12-07 15:47:30.226524,1.5747244569768966,-0.8669467363629204,-0.1024637379421223,-0.0901670122563765
2023-12-07 15:47:30.385155,-6.192385444293611,0.9653040442936802,-2.996269609839519,0.8272139208156551
2023-12-07 15:47:30.824728,6.282212605158026,-1.5089982073297343,1.3096952571933893,-0.2669299212205288
2023-12-07 15:47:31.427953,5.477831327678858,-0.7363136083249289,2.0039503079383176,-0.3466680146844024
2023-12-07 15:47:31.912260,-1.402196351296199,-1.462877460496422,-2.934659240870105,0.4243255698539449
2023-12-07 15:47:31.982389,-2.0898960790247445,-3.8659931503865534,-6.091639319821226,0.6000172877282667
2023-12-07 15:47:32.311039,-13.3294289572685,-1.2711452974954165,-8.626797521473426,1.146506417488469
2023-12-07 15:47:32.579012,-7.585899201694198,4.856902736188767,2.379160650687496,0.0058251752353572
2023-12-07 15:47:32.749580,4.532248037434175,1.5603959133270078,3.292629028209713,0.0071487214119394
2023-12-07 15:47:32.814446,-1.5953062255274233,-8.245940543293976,-14.035179648765034,2.2064941275638508
2023-12-07 15:47:33.055082,-5.091186190084079,-4.61408623408896,-9.506944981408871,1.302934681619172
2023-12-07 15:47:33.337265,-3.090460465142335,5.517178040136519,7.027026319244679,-1.0598906876577834
2023-12-07 15:47:33.679347,1.394039558906864,8.896894521033738,13.631841480444388,-1.7162530795819602
2023-12-07 15:47:33.735420,5.000971214117457,9.338109961667328,15.39878731759709,-1.7171605180008669
2023-12-07 15:47:34.144426,0.573764406692382,7.110923118183727,10.323734692218189,-1.1984769553177477
2023-12-07 15:47:34.365142,-3.752593917702038,5.918291173365394,6.885410960709073,-0.9145185686039622
2023-12-07 15:47:34.454600,-1.1110804296826091,3.9531992840438255,5.993806124060916,-1.0140675789954483
2023-12-07 15:47:34.982183,-0.1088027084313556,0.3539598808337224,1.338247304464602,-0.4489905738546356
2023-12-07 15:47:35.166164,-4.596871441086101,3.0933803973185667,2.0048152433788564,-0.1814285968304716
2023-12-07 15:47:35.257960,2.0038795984840827,2.402497478669963,4.171451094149414,-0.4135301763730458
2023-12-07 15:47:35.405813,2.0419168929196503,-0.4093074265148402,0.722313411734102,-0.1807894979419543
2023-12-07 15:47:35.954938,-10.957791970544582,3.25000417212885,-0.4370335403566989,-0.0425720347605328
2023-12-07 15:47:36.248164,-1.6490375939860622,-0.086781406778959,-1.3724704140893125,0.3199194082252353
2023-12-07 15:47:36.359732,0.3203188643430192,-2.8239476353250965,-4.523950165484778,0.770954455912673
2023-12-07 15:47:36.454380,-9.120149504160006,3.344774787008008,-0.3571487119957324,0.2674169074241442
2023-12-07 15:47:36.631801,4.489966885825247,-0.6487619324265509,-0.3632159477166111,0.6002946522340769
2023-12-07 15:47:36.890305,4.787836822598744,-8.840014908748103,-11.173496214869784,1.6581926557701503
2023-12-07 15:47:36.961622,1.929568107218108,-7.1226234565980855,-9.73824254388983,1.3540187748757575
2023-12-07 15:47:37.045092,6.925877226563215,-4.663894656784485,-3.7483500796871527,0.621359014624496
2023-12-07 15:47:37.069408,-6.431146663092538,-3.932197732944529,-7.137836136738549,0.3159464814646553
2023-12-07 15:47:37.263172,7.324005357835634,-4.186558991892261,-3.658352002280257,0.8732437895704644
2023-12-07 15:47:37.340630,26.773155689884145,-6.340166478330159,-0.1872195477095493,1.4632737174511588
2023-12-07 15:47:37.919932,10.13817535230926,-4.62480518300964,-2.663138871838602,0.6717428950891164
2023-12-07 15:47:38.250135,1.5085733395301544,-0.906328329629855,-0.9652818721936572,0.2548188757886113
2023-12-07 15:47:38.336629,-4.924593608511714,-0.3263142596563497,-2.8688193534331434,0.3400865987038322
2023-12-07 15:47:38.541260,-2.855053592026384,-2.4603059147879685,-4.824162066363887,0.5506713682492361
2023-12-07 15:47:38.678703,13.780754975410469,-3.890721671357358,-2.009309244166525,1.322803661294082
2023-12-07 15:47:38.732027,-1.569691393538407,-2.183859909507683,-3.986822812032402,0.5115141686015964
2023-12-07 15:47:39.102972,-14.7812771503996,-0.2185848650349413,-4.275606710243657,-0.594027197620874
2023-12-07 15:47:39.230115,0.0936066391675824,-0.7478459093908724,-1.4119412917932432,0.2971983839910447
2023-12-07 15:47:39.540377,8.051789425250254,-2.7200765514957848,-2.2334762492158022,1.0386571146839718
2023-12-07 15:47:39.808425,5.376712520345224,-0.9901139030315936,0.37304156293268,0.2361751308947597
2023-12-07 15:47:39.857776,-8.071472608016489,3.634422607792113,4.296283057862375,-1.5566697405595114
2023-12-07 15:47:39.954567,-16.255423009099587,3.707570561989941,3.4225891033265574,-2.472805480223392
2023-12-07 15:47:40.013322,-3.6435812310865616,1.0232545132442357,2.2215011607546327,-1.1320379539507948
2023-12-07 15:47:40.116186,-0.886692859582291,-1.2688789791528738,-1.8518806066194835,0.0826801131714018
2023-12-07 15:47:40.191371,-10.13325527287887,-3.55221192869545,-6.991529005976839,-0.1906799927568787
2023-12-07 15:47:40.325953,-4.503079441206006,-1.1668969770424953,-1.534344287071639,-0.6109148324531773
2023-12-07 15:47:40.482659,0.6713190102447695,3.548242178057828,5.973167670555443,-0.9259056251930649
2023-12-07 15:47:40.622901,1.2080363111799632,0.0913591780826001,0.0524766600900307,0.2078827450362605
2023-12-07 15:47:41.028633,10.90131733484274,-3.217744775480877,-2.568809053486766,1.416334465159743
2023-12-07 15:47:41.122257,11.250643071193796,4.12150157056725,8.86063491312015,-0.2268595941016321
2023-12-07 15:47:41.206890,3.5049815187256588,8.678470396774728,13.81341744368233,-1.5817495131732715
2023-12-07 15:47:41.866376,-4.537023704682021,8.843853216548405,12.710793275874504,-2.3257905839605355
2023-12-07 15:47:41.948126,-7.803769334551077,9.685004418340752,13.293005826466231,-2.727740734092688
2023-12-07 15:47:42.080397,1.5127849822722774,5.620787730838298,9.380374891080434,-1.3537817647867307
2023-12-07 15:47:42.279151,-1.6073282359990853,2.7933118104745582,5.630491822987044,-1.511962272400356
2023-12-07 15:47:42.788692,-2.0866493737358387,-0.0664634626408958,0.2115211032902277,-0.4885609321828058
2023-12-07 15:47:42.865150,6.200299416910953,-2.971783868676577,-3.7541887810983945,1.29504205287471
2023-12-07 15:47:43.167658,-13.274118345962524,2.203685359665904,1.3542928867989497,-1.7681764537900957
2023-12-07 15:47:43.270324,-19.67350392091199,1.8485488735041071,0.0020708457262669,-2.3768034848861928
2023-12-07 15:47:43.371178,10.555110961581454,-5.94013824668038,-7.623433146013688,2.355010524278658
2023-12-07 15:47:43.406485,16.721911757423467,-5.468949532071602,-6.640583704051846,3.14828310823634
2023-12-07 15:47:43.527550,-9.212543590091652,-0.8557284132954295,-2.652207857816858,-0.738072473813217
2023-12-07 15:47:43.710203,-6.965252098614993,-2.260611614973839,-4.139309751826026,-0.3624763061220109
2023-12-07 15:47:43.783610,18.00906539199789,-5.35558077739174,-6.756746347544024,3.4661360129308814
2023-12-07 15:47:44.190661,4.932325237082805,-2.638152073368067,-3.891576620474302,1.3039723686685312
2023-12-07 15:47:44.429542,-11.744527731626658,-1.258850997426476,-2.814315261555248,-1.2767811507274496
2023-12-07 15:47:44.671886,9.462866283093184,-5.357204802088836,-7.356651026525268,2.3286281635866803
2023-12-07 15:47:44.841242,19.22296284922521,-5.267981906792106,-7.042748871870289,3.836665177389255
2023-12-07 15:47:45.415896,13.68374661611644,-3.4205920500373104,-4.371649242985713,2.588973842202229
2023-12-07 15:47:45.532961,19.338095771908986,-4.668651765282581,-5.158234943336278,3.281776114363548
2023-12-07 15:47:45.727359,11.12701353183982,-2.762212866747295,-3.9545258850141,2.291553707736615
2023-12-07 15:47:46.020359,-11.522692443910904,0.707973609098569,-0.4975661513605927,-1.358198929057095
2023-12-07 15:47:46.338167,-12.17990283032694,0.3039053250474734,0.4854468494682188,-2.109143113604057
2023-12-07 15:47:46.465940,5.369604950564822,-1.3545166485787037,-1.6148499827888798,0.9476797413278064
2023-12-07 15:47:46.740091,10.30741401002998,-1.4162312570270694,-2.7321576528763525,2.241630744265518
2023-12-07 15:47:46.843074,0.8583146725484662,-0.4889300669304837,-1.0086827455416358,0.3411477709968812
2023-12-07 15:47:46.926616,-1.546621614716262,-0.241202979925882,-0.3472737155140361,-0.2388826412475082
2023-12-07 15:47:47.102565,11.512421994208731,-1.8818160798374688,-2.442215390965549,2.083784748794084
2023-12-07 15:47:47.671072,6.733054430411767,-1.3206776374888758,-1.661818958502078,1.2081664061384938
2023-12-07 15:47:47.797258,-13.988125411552668,2.060652292990329,2.536340374350621,-2.504351242623721
2023-12-07 15:47:47.906038,-10.476314694418132,2.2869942753269665,3.003602585037026,-2.0305360764053333
2023-12-07 15:47:48.115952,-11.683553917215336,1.688785725887168,2.1489603096719585,-2.126418400654636
2023-12-07 15:47:48.204953,-8.902183861838507,0.6993633048693376,0.6546596082381282,-1.4602182485614077
2023-12-07 15:47:48.413028,15.689392953855297,-2.1092707440612632,-2.968778918970933,2.901804937323728
2023-12-07 15:47:48.464821,8.01886996692435,-1.337880763594778,-1.951255172636848,1.542143692347257
2023-12-07 15:47:48.790038,-3.490744938313189,0.1678089529051576,0.1896200248883763,-0.6113061437252612
2023-12-07 15:47:48.852807,-0.2124641271060861,0.4076458652851549,0.6130778714751894,-0.1494446068773634
2023-12-07 15:47:48.901277,2.3025388375574973,-0.8540346114076212,-1.1797975964823288,0.478755714081345
2023-12-07 15:47:49.032327,17.680818399274663,-3.3927243697079725,-4.505017536969779,3.315173325565276
2023-12-07 15:47:49.366043,12.93822304729022,-1.2292768406743986,-1.2824273771530403,2.0988395023005646
2023-12-07 15:47:49.627609,12.774621676133563,-0.9499212755647364,-1.012459661835271,2.0823125951849497
2023-12-07 15:47:49.832645,8.07023145881232,-0.8517548756546308,-1.075769736999152,1.3825052833884328
2023-12-07 15:47:50.110373,-25.669308064053503,4.166203507391687,6.110754059622592,-5.055764322039914
2023-12-07 15:47:50.136492,-6.5882995739300085,1.6755679113301734,2.7001543938281487,-1.5468520402844756
2023-12-07 15:47:50.343636,12.980494189117946,-1.4526747193140517,-1.8042881258950223,2.236237212212421
2023-12-07 15:47:50.514030,-15.564957948612678,2.3030251514424305,3.526928681814834,-3.103672744032899
2023-12-07 15:47:50.721002,-24.372094817821523,3.961594931992155,5.843729794066706,-4.8184640775897085
2023-12-07 15:47:50.902495,-23.6407994704409,3.853711457974043,5.648212001824184,-4.660416171670411
2023-12-07 15:47:51.163155,-14.4263301265741,2.052694629860381,3.083173149335334,-2.833542213115802
2023-12-07 15:47:51.580216,-0.4893196245539223,0.2132931971808962,0.4784120832969292,-0.2283543174020359
2023-12-07 15:47:51.607402,12.350256157866156,-1.6269757482303098,-2.723945559648231,2.314044724239154
2023-12-07 15:47:52.146878,26.254368674582647,-3.433373529978444,-5.805772627130807,4.994029836871706
2023-12-07 15:47:52.243335,-4.698520479863295,0.5857108718555838,1.0498468155636564,-0.9674287714294376
2023-12-07 15:47:52.365780,-25.3531659632645,3.238039736072952,5.559442660042651,-4.885735617428149
2023-12-07 15:47:52.538361,2.080086847532125,-0.30949821963542,-0.4847779935018997,0.3686516371633968
2023-12-07 15:47:52.649525,17.560768295430854,-2.305852093612188,-3.883447732037992,3.322626604357552
2023-12-07 15:47:52.816626,16.822965598633715,-2.218536532202629,-3.7388515289721616,3.197809514478856
2023-12-07 15:47:52.986171,3.847679748367051,-0.5198069559646855,-0.8344835415602612,0.6708166605158719
2023-12-07 15:47:53.135693,6.50343938584302,-0.8542188740854408,-1.3999704335296723,1.161493824774653
2023-12-07 15:47:53.254504,23.71789484799817,-3.0789773658141555,-5.18997887883666,4.45613220830964
2023-12-07 15:47:53.386402,5.451478570917344,-0.7325356628263576,-1.2002680991950991,0.989497919460704
2023-12-07 15:47:53.644338,-6.715345970948522,0.8378168229541425,1.4734445196290054,-1.334444911278283
2023-12-07 15:47:53.753473,-6.871006683254569,0.8541299576642962,1.499030025705758,-1.3562239846501127
2023-12-07 15:47:53.989433,-18.330330846789234,2.289446341461552,3.9210151179495374,-3.456727640985624
2023-12-07 15:47:54.149274,-8.910378512555596,1.1177382239057667,1.9473882644600724,-1.7458439447664988
2023-12-07 15:47:54.215823,-11.600695967196858,1.454161920806174,2.5144834165996115,-2.2375451612854667
2023-12-07 15:47:54.452949,-14.504888051908171,1.7576724511818644,2.9954231659135746,-2.647950520601359
2023-12-07 15:47:54.607285,19.02308272331188,-2.4278139895835884,-4.061529685027915,3.471037540719193
2023-12-07 15:47:54.649302,12.409706783093476,-1.5476554974182606,-2.550049738336003,2.1545322371804136
2023-12-07 15:47:54.767595,-17.44673784974317,2.1624218067788608,3.6956737278572462,-3.258991388937475
2023-12-07 15:47:54.992460,5.565908725695115,-0.7062462324883141,-1.139145130776588,0.9327995378333156
2023-12-07 15:47:55.074499,15.642957848237083,-1.917851342235662,-3.158558184189159,2.678761513177613
2023-12-07 15:47:55.109026,-10.597803146416169,1.392271978038282,2.4392157859798806,-2.178609165019336
2023-12-07 15:47:55.659351,-8.685481065677374,1.1842004471724743,2.1035816742745914,-1.8908625723717216
2023-12-07 15:47:55.723881,-6.166906600963385,0.8415713948919024,1.5108062902521309,-1.373644568303933
2023-12-07 15:47:55.776539,-14.07515933838848,1.7839019243581649,3.0758081161991604,-2.725531823075906
2023-12-07 15:47:56.074352,0.4779915105752477,0.0236966850128371,0.1365981562977462,-0.183139677364396
2023-12-07 15:47:56.267768,-3.143727409637428,0.4476413883566253,0.8361811855249401,-0.7864843321561379
2023-12-07 15:47:56.408166,-8.344586485923752,0.993859281510842,1.7034118486137364,-1.5269149913009883
2023-12-07 15:47:56.626508,3.1634158679231152,-0.4356438514309834,-0.7037292655823205,0.5596103301544642
2023-12-07 15:47:56.719998,-15.890822822675023,1.82182383999536,3.0392085573120124,-2.672258436948149
2023-12-07 15:47:56.788985,-25.00389902826776,2.883077363797078,4.788397356970313,-4.1803453470341285
2023-12-07 15:47:57.067288,-21.92699998944012,2.5227257570056483,4.192284729413,-3.665944165817904
2023-12-07 15:47:57.148287,-20.8679328739306,2.3789620625244625,3.943159780205905,-3.448501244887244
2023-12-07 15:47:57.287043,5.214484437783227,-0.6275682422501757,-0.9982869088659664,0.8086893212542544
2023-12-07 15:47:57.579263,-5.828266315328709,0.6461997190137581,1.0945268854047867,-0.9941950004177404
2023-12-07 15:47:57.792910,-17.458342962379827,1.920416378501137,3.1506248995255595,-2.7571876341373067
2023-12-07 15:47:57.855210,14.658923201201944,-1.6425064640525269,-2.6276843367580573,2.203868139981271
2023-12-07 15:47:57.979808,16.057365353922933,-1.8084063025778243,-2.9038222683415937,2.4425152053899213
2023-12-07 15:47:58.120772,10.98335389552955,-1.3091968998734822,-2.1320775846418147,1.7883634454661703
2023-12-07 15:47:58.289154,5.510557639568536,-0.5518815088447048,-0.818121310786421,0.6410553570922706
2023-12-07 15:47:58.910859,-6.981122262554896,0.7835393032001505,1.3172556768050885,-1.185539457414991
2023-12-07 15:47:59.677041,6.1281213427970025,-0.7489509316301706,-1.2139431655320745,0.9978895139955744
2023-12-07 15:47:59.769014,-3.18372810222822,0.3713517257857733,0.6521885188765695,-0.6153388405382718
2023-12-07 15:48:00.261920,-14.71753606347552,1.5362496928653209,2.473844824899421,-2.164276227022316
2023-12-07 15:48:00.511973,1.4650413328020246,-0.290454353143622,-0.5074492455378423,0.3995418112344823
2023-12-07 15:48:00.623690,9.196603945465462,-0.993032946081018,-1.5580045319456532,1.281628046614131
2023-12-07 15:48:01.005596,14.81316924368602,-1.5162041987829644,-2.3495934734694326,1.9485248073133967
2023-12-07 15:48:01.142177,6.1634965107179776,-0.7916972411762271,-1.3117591279406473,1.0881078729317568
2023-12-07 15:48:01.176408,-1.7271546849855377,-0.0184991464989809,-0.1181169892353148,0.0767441353399527
2023-12-07 15:48:01.836044,6.62288877991459,-0.4780724670305845,-0.5944377512027079,0.4255481977125846
2023-12-07 15:48:01.908818,1.8895734336357863,0.0399420996764448,0.2403845345679082,-0.2900452548317745
2023-12-07 15:48:02.102223,4.956040784513275,-0.6800911520670234,-1.1479594750410549,0.951227132814276
2023-12-07 15:48:02.476532,2.879248364155732,-0.53192223367221,-0.9563368407348206,0.7975620908947605
2023-12-07 15:48:02.681882,-14.038924964435038,1.2701399805630187,1.9214542805036032,-1.66323529762153
2023-12-07 15:48:02.791849,-10.898935550779251,0.9927498195295308,1.5115889904699875,-1.320302843277508
2023-12-07 15:48:02.966459,-7.528423160952596,0.6914807938644157,1.0639769358408842,-0.9451813120183884
2023-12-07 15:48:02.996991,-7.620111283878946,0.7224846105773421,1.125189920762647,-1.0002042529719295
2023-12-07 15:48:03.167261,-4.111016137876245,0.3438925574942441,0.5163544629236033,-0.4786549957853375
2023-12-07 15:48:03.485406,-5.816646850389216,0.5290580395228592,0.8131474758236603,-0.7327127521819711
2023-12-07 15:48:03.536928,-6.924023588023521,0.750056165525279,1.2271523398115551,-1.1006143014107803
2023-12-07 15:48:03.713024,-8.869890886265566,0.8253295117660094,1.2667699444235927,-1.1162223949995436
2023-12-07 15:48:03.828873,-3.0563783186082776,0.2105205353102487,0.2861208377597785,-0.2779671737154026
2023-12-07 15:48:03.893117,0.011138366411047,-0.0735825275964575,-0.1431922455966294,0.0835753582586502
2023-12-07 15:48:04.063221,0.9513028355506812,-0.2416882195525716,-0.4538179902985321,0.3587364133878291
2023-12-07 15:48:04.489287,12.529163925640445,-1.101916206758455,-1.6045138345609726,1.2920341048035058
2023-12-07 15:48:04.546534,15.418702283341329,-1.1823797020727669,-1.5972539625371167,1.254986677224703
2023-12-07 15:48:04.606131,27.02549568991346,-2.076274211261844,-2.8201553387274667,2.254212863997936
2023-12-07 15:48:04.899717,35.33693047059487,-2.6576452004558497,-3.5669662109202185,2.851557228087359
2023-12-07 15:48:04.988829,9.788131150555026,-0.6759381990118825,-0.8477693284669315,0.627490233678276
2023-12-07 15:48:05.481351,-0.2445575435268918,0.0200609665290592,0.0385299223648998,-0.0792890463840124
2023-12-07 15:48:05.609213,7.40663423922879,-0.5791518516663099,-0.7898849195398918,0.5998901382256997
2023-12-07 15:48:05.883343,2.377690818117138,-0.2000281524017343,-0.2796235379507075,0.185150369133227
2023-12-07 15:48:05.955923,3.170942956399512,-0.2464649205788979,-0.3319882439371592,0.2249563783753017
2023-12-07 15:48:06.055219,0.807626999291928,-0.0981824372537071,-0.1585142037676482,0.0909704370739213
2023-12-07 15:48:06.146393,5.760501548438895,-0.3304419378898636,-0.3527677658035978,0.2169531535208507
2023-12-07 15:48:06.331467,25.14035109868761,-1.49103501110302,-1.6635994345184029,1.2146525584193697
2023-12-07 15:48:06.641916,8.199129434498783,-0.3917189058821185,-0.3332634369641594,0.1735887223835887
2023-12-07 15:48:06.868272,-12.897446026038804,0.919882556367322,1.197472707404245,-1.0073728680514291
2023-12-07 15:48:07.031024,3.3607167992325007,-0.2326894643670576,-0.2959849307836739,0.1908506641704788
2023-12-07 15:48:07.282576,3.2443924919372824,-0.3883863202791588,-0.6470192934283967,0.5142369215708105
2023-12-07 15:48:07.332406,-10.799099935363534,0.4587850707426096,0.3145827281803343,-0.2192259541062873
2023-12-07 15:48:07.548192,-4.84530821942897,0.1038273592396073,-0.0853107602497484,0.0848003663679636
2023-12-07 15:48:07.928010,-5.040325336962982,0.1865735327980304,0.0831971624439337,-0.0675662235884515
2023-12-07 15:48:08.135030,-9.768507230420372,0.6199126646680378,0.7321343256502153,-0.612709509445257
2023-12-07 15:48:08.344377,4.465979895972677,-0.2442216736422463,-0.256557393032241,0.1438736902967413
2023-12-07 15:48:08.462703,7.444901845977955,-0.4931437313129004,-0.614006439652237,0.4404095997500653
2023-12-07 15:48:08.540850,-7.963204664929996,0.3822641819905851,0.3222322767687425,-0.2553710377498923
2023-12-07 15:48:08.600784,-9.146415216558475,0.4212462758854793,0.3311248117337689,-0.2508834427850552
2023-12-07 15:48:08.665198,-11.52236179807759,0.5252558439982679,0.4065586786302718,-0.2948268348989702
2023-12-07 15:48:09.372757,-9.487091359898722,0.3629510730371094,0.1791741498827808,-0.107632065185632
2023-12-07 15:48:09.609449,3.114734290049922,-0.2885805301420798,-0.4464729782856221,0.33317581063987
2023-12-07 15:48:09.706400,-12.4937419565418,0.5217660081606822,0.3338586772604779,-0.2174831421443328
2023-12-07 15:48:09.759777,-9.220924536109372,0.2621690484976167,-0.0281055088663716,0.0800713977356056
2023-12-07 15:48:10.471050,23.860440783175594,-1.1243459376760787,-0.956576002406086,0.5821361111630408
2023-12-07 15:48:11.037120,12.14808903312744,-0.2625935563650732,0.1868874637988398,-0.3428254772939066
2023-12-07 15:48:11.232952,-10.091240335966212,0.5388416503749459,0.5222306595779505,-0.4151997258969403
2023-12-07 15:48:11.563847,-13.494884005179184,0.5246559820371637,0.271845441193607,-0.1494220221870537
2023-12-07 15:48:11.648969,-14.7962173162455,0.7495492898643438,0.6823283418876916,-0.5120928782441344
2023-12-07 15:48:12.286037,3.200669696279841,-0.0562612021643109,0.063594312748987,-0.1346867027702689
2023-12-07 15:48:12.622548,2.6093352643224748,-0.1706584413011871,-0.2267405663391953,0.1379954713848523
2023-12-07 15:48:12.762246,-6.137324332957218,0.2191389025858648,0.0688656142795381,-0.0405922054292456
2023-12-07 15:48:12.837591,8.45655333447666,-0.3028902291830146,-0.1438536334100306,0.0003423527676719
2023-12-07 15:48:13.006604,-9.08334985500258,0.3188590098245322,0.0978706818761516,-0.0358597722260001
2023-12-07 15:48:13.072602,-17.97354922958324,0.6581288890040622,0.2731767988551062,-0.1025872998820291
2023-12-07 15:48:13.601855,9.17126134198664,-0.279499666878164,-0.0484542376663979,-0.094450266435143
2023-12-07 15:48:13.665088,1.817775392263784,-0.0602195052974509,-0.0384699061555795,-0.0257802764805131
2023-12-07 15:48:13.786400,2.729636941149247,-0.0568674978938825,0.0268437034882296,-0.0952521472458319
2023-12-07 15:48:14.066375,28.45492629865417,-0.8410921996139655,-0.0483196050291843,-0.2982042567710963
2023-12-07 15:48:14.184473,14.21406278346005,-0.329909239780911,0.1619855227970433,-0.3404843072971916
2023-12-07 15:48:14.400020,-1.9108764901805773,0.2238586019235883,0.3451105717820028,-0.3379162218059076
2023-12-07 15:48:14.721399,9.29535914284873,-0.2263331291139786,0.0732796771961982,-0.2069731741662246
2023-12-07 15:48:14.892835,6.482299811386096,-0.2216395998173688,-0.0973350533665678,-0.0206625951769684
2023-12-07 15:48:15.727066,-1.8809470197586349,0.0864226430869969,0.0433470476650544,-0.0612318130349745
2023-12-07 15:48:15.815790,-0.3327950735570479,0.0518929900888118,0.06632536565804,-0.0986213780996489
2023-12-07 15:48:15.884155,-10.176488930598744,0.3044331004605906,-0.0100757415146461,0.0755858794407918
2023-12-07 15:48:16.253754,-14.430034156056983,0.4030957186116929,-0.0662876108585985,0.1721683861050683
2023-12-07 15:48:16.352636,-4.322647184674693,0.0988966812887982,-0.0872949544414419,0.0846243067372141
2023-12-07 15:48:16.447883,-7.681107567003093,0.1790460212011592,-0.1267498729677484,0.1563647335944236
2023-12-07 15:48:16.570735,0.4423833609828679,-0.0175068940122331,-0.0381831318688951,-0.0107256068483418
2023-12-07 15:48:16.604451,14.31378158989831,-0.3475496262786947,0.1255473354259446,-0.3075371953171541
2023-12-07 15:48:16.747334,-4.156251968714787,0.126433152071508,-0.0170295329773354,0.0185516490614644
2023-12-07 15:48:16.961279,-12.596358292640828,0.3242975027095359,-0.1234666301588222,0.2054449738813164
2023-12-07 15:48:16.997145,-6.005790727936684,0.1300201844754372,-0.1281422437059906,0.1400776204190913
2023-12-07 15:48:17.247294,-4.012780713160645,0.0859695350528309,-0.0972968811142034,0.090729861565772
2023-12-07 15:48:17.293834,10.894511649994204,-0.2309416831711757,0.1619253955097897,-0.3046485515861427
2023-12-07 15:48:17.478178,8.565482638989002,-0.2062925633237004,0.0666442252561417,-0.1926131096154027
2023-12-07 15:48:17.684879,-3.97824339516847,0.075707319429646,-0.1178647035142151,0.1092614492065178
2023-12-07 15:48:17.815121,-0.8717989141450257,0.0193208213943424,-0.0478559239232274,0.0201703383134904
2023-12-07 15:48:17.994612,1.9330540780942724,-0.0113579295508731,0.0620699161324996,-0.124368053299387
2023-12-07 15:48:18.109441,8.619335691428363,-0.0830148883844001,0.3257198003951208,-0.4794292242598752
2023-12-07 15:48:18.500162,0.3547070033808255,0.0034431996511455,-0.0024441195479514,-0.0255369658205145
2023-12-07 15:48:18.545562,-5.6005462190759046,0.0670372357732841,-0.2374939861572969,0.2922965229437093
2023-12-07 15:48:18.698048,7.269390354496904,-0.0692411787116174,0.2717864821704924,-0.4028821992680516
2023-12-07 15:48:18.962905,-4.391579561282605,0.0541548382899121,-0.1896961566362456,0.2275006560067876
2023-12-07 15:48:19.103448,-7.657678086905858,0.0907276474257641,-0.3167424081245221,0.3897143585081746
2023-12-07 15:48:19.417304,9.998668114236,-0.0952330607606105,0.3830363895699462,-0.571136070570266
2023-12-07 15:48:19.539361,12.508739663817634,-0.1237062940205646,0.4803397691296203,-0.6932895224688221
2023-12-07 15:48:19.908251,6.616512062857523,-0.0606042061830387,0.2480025229129301,-0.3801507531439883
2023-12-07 15:48:20.095486,-11.993995915934132,0.1354456916134517,-0.489463255037301,0.6322127459075695
2023-12-07 15:48:20.148142,-19.9909799407426,0.2176931968305147,-0.8084910399282276,1.081383654175882
2023-12-07 15:48:20.226909,-16.684678635890094,0.1825958878372839,-0.6776983419291861,0.9033333936994874
2023-12-07 15:48:20.387990,-14.399494017320174,0.1554494656889671,-0.5904171718937348,0.8007982731378813
2023-12-07 15:48:20.592467,11.03562101803055,-0.1095940345482655,0.4207687479396989,-0.603643470750661
2023-12-07 15:48:20.670408,12.2755982873923,-0.1204736106661223,0.4723522239923713,-0.686743477576691
2023-12-07 15:48:20.702997,0.0262117914751364,0.0083151487096294,-0.0132747267787618,-0.0186889646039561
2023-12-07 15:48:21.177340,20.023183648737767,-0.1937466480860828,0.7886065038803189,-1.1678382495185071
2023-12-07 15:48:21.280429,13.294874043828283,-0.1274705174199941,0.5170521833288863,-0.7691775054376434
2023-12-07 15:48:21.759191,-1.7237784599267514,0.0298261229413104,-0.0790274867011994,0.054239931458839
2023-12-07 15:48:21.898405,7.514266814763387,-0.0618762770798283,0.2932629806301542,-0.4884239604930031
2023-12-07 15:48:22.106341,2.293193358026337,-0.021171441345337,0.0709138532139489,-0.1027822436766485
2023-12-07 15:48:22.235640,-5.0837177125159,0.0576029188669082,-0.220168357609371,0.2908123856832852
2023-12-07 15:48:22.650949,-11.438460714094653,0.1252027228490706,-0.4711811903615908,0.6316882040774415
2023-12-07 15:48:22.778006,-5.596294611468608,0.0603269995168881,-0.2431754809277697,0.3374208574972921
2023-12-07 15:48:22.838126,6.043293643460407,-0.050215100489285,0.2313270173127656,-0.3818934769948731
2023-12-07 15:48:23.037782,-14.307885041432888,0.1441733101380874,-0.5967916595019834,0.8674056816278112
2023-12-07 15:48:23.178891,-3.209480142743999,0.0384665885786982,-0.1446691716922714,0.1836825812683231
2023-12-07 15:48:23.574440,18.47487835261726,-0.1619651708876334,0.7452204921373244,-1.195451240751784
2023-12-07 15:48:23.755847,-11.826698034244323,0.113968075699024,-0.5025139762703126,0.7608199982825405
2023-12-07 15:48:23.900052,0.8882310254331096,-0.0012789329078903,0.02182123002728,-0.0641629909357918
2023-12-07 15:48:24.392166,23.03571926127276,-0.1976159391950829,0.9398296063701272,-1.5323781913117784
2023-12-07 15:48:24.681424,-15.612121438123443,0.1456921428881963,-0.6609851232884744,1.02417832520518
2023-12-07 15:48:24.777077,-11.626510259476968,0.1074681452755242,-0.4988087722350873,0.7803684163752065
2023-12-07 15:48:25.009879,11.900824760262775,-0.1007499101646388,0.4767771863314619,-0.7818227224600497
2023-12-07 15:48:25.428436,-7.164406136615218,0.065812623561383,-0.3158724363661112,0.4991081421621579
2023-12-07 15:48:25.539066,-1.1563149384864162,0.0192085080332175,-0.0594872195161193,0.0532595980407262
2023-12-07 15:48:25.599540,6.884561391502282,-0.0514799804212855,0.274555287902937,-0.4841734390560752
2023-12-07 15:48:25.691817,-8.410930518074839,0.0717171024829344,-0.3726665501245288,0.6176708901164175
2023-12-07 15:48:25.897906,9.063916249219464,-0.0671822823196949,0.3691238002843622,-0.6548494868931934
2023-12-07 15:48:26.125293,16.6574687785814,-0.1259557562431497,0.6932773854528219,-1.2192265646027565
2023-12-07 15:48:26.183369,-9.362200041736592,0.0783233725815128,-0.4135914696458833,0.6930012838220022
2023-12-07 15:48:26.414794,-3.5943654132352174,0.0353826201064126,-0.1654803033720015,0.252138865539892
2023-12-07 15:48:26.448347,13.9460848766155,-0.0973539555577861,0.5863704368395054,-1.072749177463139
2023-12-07 15:48:26.674790,0.4973808946807275,0.0024935142778195,0.0081157630222172,-0.0436724093953264
2023-12-07 15:48:26.748296,-19.096460924478645,0.1472117276822854,-0.8352561103382751,1.4610934704383334
2023-12-07 15:48:26.804313,-11.779336767784178,0.0908029885929122,-0.522638319828357,0.9156292562718706
2023-12-07 15:48:27.100269,10.59497739300288,-0.070095596612978,0.4455230212619794,-0.8342361942576775
2023-12-07 15:48:27.374346,9.315336462223703,-0.0566565743949634,0.3949465240414254,-0.7645966330394918
2023-12-07 15:48:27.821902,10.90738194729625,-0.0668334334550675,0.4653869147452352,-0.8984127636689254
2023-12-07 15:48:27.900633,16.114691506959197,-0.1041267125149893,0.6910211006024571,-1.3069739983627575
2023-12-07 15:48:28.001401,-8.930058778744858,0.0593651182953004,-0.4103673257465491,0.769398973484031
2023-12-07 15:48:28.115733,-13.663376919613569,0.0902576890575541,-0.6183801271295462,1.1616429365726384
2023-12-07 15:48:28.255561,-8.421076014369282,0.058673471804655,-0.3847483005609267,0.7079130040108268
2023-12-07 15:48:28.462610,-13.784296350317586,0.0911250000125743,-0.6232397341688777,1.1705549773151602
2023-12-07 15:48:28.568073,12.0391397250996,-0.0636921585227239,0.5277269362883773,-1.068866297836507
2023-12-07 15:48:29.427676,13.524131223427812,-0.0732192207051974,0.5934141542712789,-1.1934698549588134
2023-12-07 15:48:29.615116,-9.88873870380758,0.0574688161208194,-0.4602703750875908,0.9052449772687652
2023-12-07 15:48:29.679752,0.3310888929498027,0.0022422392356405,0.0019199077906662,-0.0242136210417848
2023-12-07 15:48:29.823925,-0.5582838571438069,0.0094827243888901,-0.0354471033944291,0.0390327654271887
2023-12-07 15:48:30.054504,-3.508520160428239,0.0236049387122572,-0.170602744276835,0.3199344085828765
2023-12-07 15:48:30.209392,12.784827375154194,-0.0587737083852591,0.5723113928639799,-1.2020684384804592
2023-12-07 15:48:30.365025,-1.6793407584076554,0.0123576959866743,-0.0890085220223818,0.162750421632554
2023-12-07 15:48:30.500269,-17.502906027828658,0.0826847356237896,-0.8206414488225036,1.7091753638433902
2023-12-07 15:48:30.995812,-0.1666052377053716,0.004117265397207,-0.0203093455240342,0.025106232658263
2023-12-07 15:48:31.257367,5.957165943594258,-0.0194616954520336,0.2670569540799543,-0.5996579898153481
2023-12-07 15:48:31.353675,-3.627036348331012,0.0173703330465076,-0.1822777205256978,0.3779153081668476
2023-12-07 15:48:31.413690,0.7311397451167002,0.0010500226025762,0.0227911142370836,-0.0700772227031076
2023-12-07 15:48:31.957438,3.922520065837958,-0.0108894286099077,0.1730212314195151,-0.3982886707091587
2023-12-07 15:48:32.089167,-10.283811903985772,0.0361069979920391,-0.5013662774610084,1.1049584915400286
2023-12-07 15:48:32.218563,-16.324252479662036,0.0625626521570505,-0.7809656375515758,1.697892929681979
2023-12-07 15:48:32.310325,-7.355287255991482,0.0315666951391105,-0.3563312259622843,0.757809323567732
2023-12-07 15:48:33.183934,-7.121772917363791,0.0179961554685436,-0.3589665879069814,0.8239055193153703
2023-12-07 15:48:33.586912,-9.003073858517718,0.0211468449049259,-0.451451751601051,1.0446051298011154
2023-12-07 15:48:33.648784,-4.827324102349703,0.0063531714187781,-0.2540474506405323,0.6093575603840189
2023-12-07 15:48:33.966128,-6.205610877477392,0.0103457856814264,-0.319925566190739,0.758987421988463
2023-12-07 15:48:34.180072,-2.5313703824448264,0.0162531264138584,-0.1256378378165497,0.2412866151041452
2023-12-07 15:48:34.298191,6.344720571799035,-0.0048853281921458,0.3049610556488091,-0.7569325363476271
2023-12-07 15:48:34.567767,4.759036545167868,-0.0130732777308025,0.2152434147551688,-0.493765214603826
2023-12-07 15:48:34.816700,0.9507942882199354,0.00099106192269,0.0361843805124634,-0.1014218581314045
2023-12-07 15:48:35.089913,-1.8727868225621247,0.0098715223291536,-0.0982146833234637,0.2004243387385465
2023-12-07 15:48:35.189824,-5.76823714272465,0.0092756889764554,-0.2976686967540067,0.7084028720161109
2023-12-07 15:48:35.489915,1.4850284808885164,-8.625917541096078e-05,0.0628282343082209,-0.1636603780414418
2023-12-07 15:48:35.674619,10.315328181560094,-0.0118968478387818,0.5012169354974949,-1.2223310646839578
2023-12-07 15:48:35.829478,1.3002366956746156,-0.0030783863248418,0.0504765302531637,-0.118963348721833
2023-12-07 15:48:35.872790,-5.62696147289015,0.0081850710658809,-0.2909576294079196,0.6968700698428903
2023-12-07 15:48:36.206410,-4.805660583149122,0.0056452893745788,-0.2516018404665992,0.6084406405553996
2023-12-07 15:48:36.326481,-18.237393468260887,0.0127217567985814,-0.9298476036819924,2.295650577773176
2023-12-07 15:48:36.546153,-14.436488361004118,0.0072308734301545,-0.7415052603847178,1.8427277720355453
2023-12-07 15:48:36.783372,11.231816365991383,-0.0111863868965852,0.5497808954126947,-1.347425296753654
2023-12-07 15:48:36.982791,1.436568051807663,-0.0047234264580009,0.0566135968275497,-0.1263307534094289
2023-12-07 15:48:37.248249,-17.36707377304217,0.0030243648352699,-0.8953134446390777,2.251143924338696
2023-12-07 15:48:37.873149,8.416296162128479,-0.0010025767212196,0.4174848317768808,-1.0563091488060978
2023-12-07 15:48:37.943262,29.245029967808527,0.0012260958611808,1.48399485058937,-3.767244094079744
2023-12-07 15:48:38.220049,7.759157029215708,0.0003054638015308,0.3856255715930305,-0.9810249700991304
2023-12-07 15:48:38.393260,-6.813215136944152,-0.0014656748210435,-0.3605262359815265,0.9167725470537456
2023-12-07 15:48:38.469542,-9.946519590480388,-0.0035285371380026,-0.5226848547233786,1.3366460324175065
2023-12-07 15:48:38.727362,-18.96914171647768,-0.0113011518025504,-0.9918832727066,2.559134483151722
2023-12-07 15:48:38.814764,-1.024609368489124,-0.0029793386749922,-0.0660928632319774,0.1780182380474815
2023-12-07 15:48:39.171041,10.29092176136379,0.0015741244432152,0.5169845998645017,-1.3185996202208252
2023-12-07 15:48:39.254924,-6.845053448885757,-0.0088422146530359,-0.369532869066174,0.9724410949960424
2023-12-07 15:48:39.420693,1.3747348559839807,0.0035978820965336,0.0639783253512696,-0.1797679676719858
2023-12-07 15:48:39.537701,9.193663847239202,0.0089309595486175,0.4692837923760324,-1.2295219898778391
2023-12-07 15:48:39.700113,-0.8691503922360243,-0.0019843712788037,-0.0564866974376269,0.1499502191071664
2023-12-07 15:48:39.907069,10.805796005047334,0.0128046573849784,0.5560576500582418,-1.4659944893391146
2023-12-07 15:48:39.962601,16.14204884960408,0.0192952811032072,0.8357932253370958,-2.202757175903041
2023-12-07 15:48:40.019297,-4.433593042672058,-0.0072556995508995,-0.2439871116096526,0.6481895503193024
2023-12-07 15:48:40.088104,-9.170424671173388,-0.0158095223368993,-0.4951525725907842,1.321792978599906
2023-12-07 15:48:40.222412,6.920211260555343,0.0093477147582267,0.3542021437550933,-0.9392340970395198
2023-12-07 15:48:40.238127,0.816400751183897,0.0016814454176442,0.034167102511743,-0.0950734481916473
2023-12-07 15:48:40.384213,-9.99861740062672,-0.0183666969613868,-0.5399831556252307,1.4467676666460196
2023-12-07 15:48:41.008982,6.474073988351109,0.0102742725727608,0.3326613766310233,-0.8884672879121412
2023-12-07 15:48:41.073549,3.744361345018567,0.0051367659476554,0.1877130053968544,-0.4988325065696622
2023-12-07 15:48:41.109889,-2.3492602776611777,-0.0075159030971021,-0.1372395394226653,0.3795275168688848
2023-12-07 15:48:41.520252,16.13486410314258,0.0299335412358238,0.8477122281919494,-2.278626084468661
2023-12-07 15:48:41.644187,11.610542200275244,0.0230550278796613,0.609188298428861,-1.6443898745801064
2023-12-07 15:48:41.750499,13.883438729024316,0.0288864874117148,0.7316819827553906,-1.980047783615388
2023-12-07 15:48:41.928646,30.356955919100045,0.0641095044203095,1.6114969985441427,-4.362198390884963
2023-12-07 15:48:42.189444,14.205028377464387,0.0305091764747611,0.7499666584243455,-2.0333455098741657
2023-12-07 15:48:42.289744,-4.979987492915932,-0.0117943353693603,-0.2759610236979546,0.7498867558278841
2023-12-07 15:48:42.354174,-13.3252196765191,-0.0322633710231889,-0.7244558605663115,1.9752459860816909
2023-12-07 15:48:42.585579,-13.025622194523354,-0.0319844030709875,-0.7088183620568803,1.9344521499149951
2023-12-07 15:48:42.713450,-4.680183591589352,-0.0135335824692473,-0.2624456529239615,0.7233396281314506
2023-12-07 15:48:43.065880,-5.21777095389275,-0.0149713574056252,-0.2914476002461689,0.8030954066057744
2023-12-07 15:48:43.248627,-4.314824250296992,-0.0123005837173328,-0.2424047385391728,0.6672362073088357
2023-12-07 15:48:43.766425,-10.30666166193453,-0.0271580655228404,-0.564610253645418,1.548203180631048
2023-12-07 15:48:43.830575,-11.87867026423366,-0.0307539911465542,-0.6488112070278024,1.777176291103871
2023-12-07 15:48:44.071513,4.903634871546305,-0.396712818655914,-0.233484336296163,-0.8532824249417685
2023-12-07 15:48:44.318449,2.1272678473874884,-0.0284470414534913,0.0852924085911485,-0.2707965829884861
2023-12-07 15:48:44.392485,-8.99441405130027,-0.0457551931310905,-0.7723322999985014,1.111088570313559
2023-12-07 15:48:44.589076,-8.034535213600247,-0.527886092645154,-1.3607011689933444,0.7210020101119031
2023-12-07 15:48:44.692624,-6.114538030060178,-0.0237703477215612,-0.5186610533503843,0.7728143675598719
2023-12-07 15:48:44.861027,5.020010569485555,0.0693949507255548,0.4368408446474201,-0.5771435258335925
2023-12-07 15:48:44.919892,7.7828062373422044,-0.3713444751382594,0.0723850295461725,-1.1286376530444286
2023-12-07 15:48:45.031644,-2.4976895153565954,0.3046974703378538,0.3091892220593347,0.6408436667913936
2023-12-07 15:48:45.189475,-3.8681201040840367,0.5303248988076217,0.5180431801320616,0.9419661561115156
2023-12-07 15:48:45.389801,-4.830187274376773,-0.0115824991742641,-0.3769573738362548,0.6556644375982299
2023-12-07 15:48:45.509690,0.2830405253693119,0.3005755974517324,0.4919334000963545,0.2648486486606866
2023-12-07 15:48:45.650797,11.44870748436239,0.5417802524033077,1.7506366964729825,-0.8805438464979544
2023-12-07 15:48:45.717987,-1.3167128130795196,0.5631315326196292,0.7440651497765189,0.6280001663875856
2023-12-07 15:48:45.858622,-10.919037589073415,0.7263984819473693,0.2209438169124993,1.88666696983241
2023-12-07 15:48:46.140947,6.735846964667028,0.489671555435148,1.3310841849925308,-0.3134062677830764
2023-12-07 15:48:46.254376,8.753433435042457,0.1536915809611327,0.9851854892108232,-0.8013688625897282
2023-12-07 15:48:46.399193,5.451884788541843,-0.4513137055968419,-0.1735758329754507,-0.8327445257775723
2023-12-07 15:48:47.427505,12.134598990801022,-0.3501522770378351,0.5803417946582965,-1.4659993768306816
2023-12-07 15:48:47.510091,-4.826962332522587,0.5233075866311506,0.3830724813349117,0.9895245314041382
2023-12-07 15:48:47.570694,-14.16404155909377,0.0204421651680804,-1.2559505501277894,1.5560222377334476
2023-12-07 15:48:48.056546,-1.1711433613703128,-0.0909260936992648,-0.2632932612760662,0.0867474932235213
2023-12-07 15:48:48.095626,2.182708331150621,0.5202311250353872,0.9514868801198824,0.1708994648562618
2023-12-07 15:48:49.102490,9.75480969931994,-0.8976264141297944,-0.433138653273033,-1.5838955199076412
2023-12-07 15:48:49.211740,15.342066801605808,-1.296308242750957,-0.4011696201885725,-2.302661099490758
2023-12-07 15:48:49.364006,7.952197792513105,-0.330545175979915,0.3126743457428354,-0.9073501753610648
2023-12-07 15:48:50.322772,6.788626834248021,-0.2459901141366848,0.2436490200318082,-0.8393199137791709
2023-12-07 15:48:50.395848,-2.2205411669009143,2.407720584306458,3.0988481775298657,1.640981477720024
2023-12-07 15:48:50.753849,-25.654047591604524,2.9073734440611383,1.3149645840507111,3.942681562387997
2023-12-07 15:48:50.872824,-26.90310794255358,-1.4779045447025154,-5.027795506058324,1.3324429888688032
2023-12-07 15:48:51.065642,-2.045563483416089,-1.4078891441873131,-2.1137349938444565,-0.5172482641710483
2023-12-07 15:48:51.191213,7.304772863132687,0.6817712293670718,1.8562393135169764,0.0036073386267348
2023-12-07 15:48:51.360257,-2.828339052916743,0.5082885548473176,0.4954505067968651,0.7092573858024698
2023-12-07 15:48:51.391263,-8.511634933772644,1.2863586924000965,0.9713341248266308,1.646618156201738
2023-12-07 15:48:51.421636,-5.3682043704009255,0.526050712953387,0.1433765162635199,0.7989751228598624
2023-12-07 15:48:51.553654,6.122297592601951,-0.1427254737754706,0.5385881401407057,-0.4378302469473864
2023-12-07 15:48:51.622411,9.60637625495216,0.4438001803704226,1.8082138678333155,-0.2828977833954686
2023-12-07 15:48:51.918958,4.108298918814356,-0.516883062542186,-0.255224996873081,-0.562198692550927
2023-12-07 15:48:52.268228,7.217735895369774,-0.6639916672159126,-0.0696616146765482,-0.8366886043318627
2023-12-07 15:48:52.345680,0.7316015851197051,-0.3921901896442313,-0.4986590004172824,-0.2759906423110905
2023-12-07 15:48:52.403210,-6.845956285328992,-0.2257673116353642,-1.2356670026410177,0.2575122448612783
2023-12-07 15:48:52.459902,8.474717875571727,0.2882111835985075,1.4930734733959117,-0.2505007263006947
2023-12-07 15:48:52.573246,7.343257042638596,0.2140798847988995,1.2335051476375456,-0.2441373659863839
2023-12-07 15:48:52.617263,-11.55018917408027,0.962654891779488,-0.276232976476037,1.107725556846858
2023-12-07 15:48:52.699804,2.17273104787266,0.342049885426351,0.7521588245259535,0.1302617438233038
2023-12-07 15:48:53.025165,22.03023868570485,-1.0661033889655476,1.6593818585650222,-1.419067257921674
2023-12-07 15:48:53.262863,7.291304160903391,-0.0363852363038131,1.0260181504606547,-0.1994804127278479
2023-12-07 15:48:53.691609,-4.793398987930301,-0.4445522709734375,-1.3835750011470995,-0.124700084447568
2023-12-07 15:48:53.819706,-0.5419746618360509,-1.0369626220678796,-1.5944164754707773,-0.627791577501811
2023-12-07 15:48:54.152377,-10.443648434341965,1.6132362791043895,0.5799156726960202,1.1826155340761737
2023-12-07 15:48:54.263144,-6.449700994769372,2.54766018182174,2.5679429479951,1.7292384655442214
2023-12-07 15:48:54.551396,17.59223787032094,1.2546041017396492,4.67618202234099,0.6545871485571704
2023-12-07 15:48:54.650725,10.591911605676444,0.9106018708794538,3.0479219951796948,0.52871232993828
2023-12-07 15:48:54.810850,-5.877401408990352,0.8790060145760272,0.3403656940266974,0.7423050274048617
2023-12-07 15:48:54.977070,-5.741060116698363,0.8606930961847442,0.2567007385939189,0.6269119210228635
2023-12-07 15:48:55.347600,-4.649791069422787,-0.4708450634265072,-1.5277357350857856,-0.3097303476141591
2023-12-07 15:48:55.553391,2.030131707876542,-0.4991992576225557,-0.2115089536376939,-0.0682124758524508
2023-12-07 15:48:55.685601,10.896636653667809,3.4257209677947493,6.867584132480525,2.3494378310207424
2023-12-07 15:48:55.781590,28.17919133104432,4.383799332549605,11.300543374931182,3.059018409909857
2023-12-07 15:48:56.023721,29.48595350960408,1.921700553919551,8.27216930123912,1.831373130138353
2023-12-07 15:48:56.120140,-5.1279646641008165,1.0140077971552457,0.4689281352487018,0.5799753109219001
2023-12-07 15:48:56.198044,-15.651453338304774,1.130011891355667,-1.444392163865963,0.3194397290444001
2023-12-07 15:48:56.308580,-8.165924965271719,1.4690869996690088,0.4444072644893638,0.6773312092861984
2023-12-07 15:48:56.400567,-12.705424855643138,-0.138317681446957,-2.829477554890144,-0.5915842698392938
2023-12-07 15:48:57.003638,-0.2743930500422577,0.562519472372081,0.6920213710114976,0.330953915034486
2023-12-07 15:48:57.071191,7.676259589367239,4.54829634559354,7.765384768662979,2.871156100958287
2023-12-07 15:48:57.219090,2.7527973450033847,3.0390150826518645,4.5891917902611885,1.6951050892180808
2023-12-07 15:48:57.253629,4.050426998383205,1.233256102707065,2.7652167169149395,1.227946757197498
2023-12-07 15:48:57.371820,-2.1837770412761657,2.278462675129005,2.8123625901564666,1.4197116521387103
2023-12-07 15:48:57.815331,0.0528032576719668,-0.130832897647555,-0.4592776441898801,-0.3878357462243465
2023-12-07 15:48:57.936669,7.563701964276113,-1.270617344922165,-0.2170356850379121,-0.3787054211992798
2023-12-07 15:48:58.033559,-2.197330433963877,0.6675960675310674,0.4238587232715038,0.2874037022922714
2023-12-07 15:48:58.186858,-3.919984395222474,1.2244942150024245,0.7050900428259155,0.3638319994703745
2023-12-07 15:48:58.511919,-1.5678975596620313,0.1451867359419279,-0.1461446754049384,0.0418920043247728
2023-12-07 15:48:58.603165,-9.276402879146673,1.1080335301259012,-0.5724611979597033,0.0519006846286082
2023-12-07 15:48:58.684413,-9.819932238476602,5.144823919443249,4.74328002717073,2.159730920690567
2023-12-07 15:48:58.856108,-11.854113698895576,5.230916231905586,4.371227614003193,2.030575080816356
2023-12-07 15:48:58.915108,-8.995689998771647,2.021858619081808,0.6418673026230001,0.4537982629773178
2023-12-07 15:48:59.184161,7.469391098659116,-1.0348788118163486,0.3325189526675878,0.0641177755260023
2023-12-07 15:48:59.468090,3.122949598004629,-4.722151345426265,-5.620660682476059,-2.19540722930102
2023-12-07 15:48:59.544125,-6.479535426974467,-2.152344040333424,-4.274671683995523,-1.4153897425560238
2023-12-07 15:48:59.801666,6.72215661933996,3.251410848141236,6.19312038309943,2.616646910626992
2023-12-07 15:49:00.046808,14.912313235870164,3.780164243720113,8.83454730306519,3.5557235792023176
2023-12-07 15:49:00.649911,17.79872876508563,3.487108045330797,9.20744879703308,3.744405433579476
2023-12-07 15:49:00.739283,6.4744059297538765,1.297612368898677,3.377850632136235,1.399024055934567
2023-12-07 15:49:01.366806,-12.68378926110815,-2.703585637114812,-6.900454235080964,-2.7467787704024125
2023-12-07 15:49:01.436172,3.239930541429109,-6.239986048109461,-7.589022516282244,-2.9299062374974936
2023-12-07 15:49:01.552464,3.719098560161613,-9.778263410755072,-12.224076583048204,-4.747063707140421
2023-12-07 15:49:01.676625,-12.118309374320184,-7.294804027961894,-12.997938750837443,-5.198641286902896
2023-12-07 15:49:01.870053,-1.0735630279183113,-2.426892078750849,-3.597035843478682,-1.4159524969344577
2023-12-07 15:49:01.959764,-10.72842093335806,-6.158206109089842,-11.155767454195493,-4.504159886354605
2023-12-07 15:49:02.170296,-9.958459832594883,-6.751778608980859,-11.70535835166238,-4.6697011987168064
2023-12-07 15:49:02.512825,7.435987107082527,0.6760043822505705,2.902604728647658,1.3195984011939124
2023-12-07 15:49:02.539824,-3.737593169025996,-2.903142376793305,-4.94528983808128,-1.9844444457212824
2023-12-07 15:49:02.593364,0.5547485148600002,-4.114792768689157,-5.339380891082594,-1.9924004424056032
2023-12-07 15:49:02.675214,3.9009742465992,4.792717237175208,7.542999873320133,3.1291067701867683
2023-12-07 15:49:02.986200,3.6933332232072096,-0.342764123604576,0.5824339028050467,0.3928697134604012
2023-12-07 15:49:03.358163,11.793572889339202,-3.9478451154861816,-1.9894781366932788,-0.3890272390547985
2023-12-07 15:49:03.577756,-12.769661393164805,1.0880358537257544,-2.1244740707216963,-1.1386459730980525
2023-12-07 15:49:03.958047,-6.294679356323082,-0.2673646856518262,-2.1454730186381945,-0.9801730372567086
2023-12-07 15:49:04.074703,21.858007931776484,1.0853050389930678,7.614962903108321,3.673750882912968
2023-12-07 15:49:04.399099,-2.875357918154104,-0.1791191502360273,-1.0611917003948068,-0.4537326809633464
2023-12-07 15:49:04.600435,-10.978847228525368,-1.8785639850530955,-5.626477488250533,-2.4776747583608825
2023-12-07 15:49:04.722543,4.816740724841455,-1.5678382139573557,-0.6910559243743464,-0.0240236211803389
2023-12-07 15:49:04.775074,-7.558317788670957,-6.8791412027615415,-11.29710165631965,-4.526077567079387
2023-12-07 15:49:04.808651,-4.612373594564642,-2.3288074450643395,-4.39749651643507,-1.7752493839885548
2023-12-07 15:49:04.962014,19.394751538171025,-0.6472434040533906,4.773656060323763,2.648672653748564
2023-12-07 15:49:05.206119,15.09784741017062,-8.857145480234992,-7.347538780690706,-2.1206785012920046
2023-12-07 15:49:05.371846,-0.3494234622130281,-5.282719981821543,-7.063143228195714,-2.605550246777892
2023-12-07 15:49:05.803215,8.273514796940633,0.6527713430239906,3.3860388111452755,1.7806564577864112
2023-12-07 15:49:05.984246,7.884405365521865,5.981412974890082,10.327643997044934,4.394111489215567
2023-12-07 15:49:06.194765,-2.6094607957455733,9.506552870584152,11.822877957144147,4.422577694559683
2023-12-07 15:49:06.254018,9.0039836456765,3.5416236684606384,7.359206306088531,3.257947834238617
2023-12-07 15:49:06.451604,-1.8960096536184128,1.4069052092994432,1.2975316295876425,0.4563971171329029
2023-12-07 15:49:06.587640,-22.47920144912966,1.172678196632286,-5.195630206069913,-3.023706833659116
2023-12-07 15:49:06.849492,-7.593153096997207,4.06720743225052,3.097837037479065,0.8464958540153961
2023-12-07 15:49:07.103356,-2.3518930381188605,8.512896857731931,10.554014646256396,3.927019355280141
2023-12-07 15:49:07.411920,0.7318269003058124,-2.561001499985123,-3.157276881346954,-1.0926104208556742
2023-12-07 15:49:07.621008,4.566021692055455,-7.223151935966462,-8.134613561771161,-2.748875705110707
2023-12-07 15:49:07.688713,-13.096114268265987,-0.6189404418003827,-4.780869983670139,-2.4301164448800354
2023-12-07 15:49:08.095775,-11.127262467558277,-5.277169672241751,-10.358724486089022,-4.447220383686835
2023-12-07 15:49:08.199561,-7.326871310987116,-2.5908464560896625,-5.63777033900268,-2.449980058168398
2023-12-07 15:49:08.452676,-7.973635629205713,1.6805277168078463,-0.2061416926239443,-0.4508353505858923
2023-12-07 15:49:08.935847,4.11494706257567,-9.703713245404666,-11.5365251788992,-4.043929804672504
2023-12-07 15:49:08.991624,-5.041098630506865,-3.9396289603168007,-6.714953607364676,-2.7249622153048003
2023-12-07 15:49:09.097316,-8.837654664691547,9.294753102398117,9.54204768077714,3.133050320963913
2023-12-07 15:49:09.315573,2.043868609861887,0.3489496909655818,1.078308596216586,0.5667792817836356
2023-12-07 15:49:09.635992,-4.141722299474316,-4.604005629317322,-7.315533525537897,-2.899898340068552
2023-12-07 15:49:09.934944,-8.674364238333544,-5.109996554223688,-9.388098769022095,-3.946725754410595
2023-12-07 15:49:10.085205,-9.661912314079943,-10.983502899837198,-17.16269959269562,-6.964730399291197
2023-12-07 15:49:10.158694,-22.18566750918953,-5.19489385892228,-13.473496792221228,-6.178573277113614
2023-12-07 15:49:10.209768,-25.5057871471924,-3.444733832914189,-12.924651606707007,-5.977882231784752
2023-12-07 15:49:10.269461,-9.767447661664574,-6.9471132521403325,-11.62630020652609,-4.922998405359197
2023-12-07 15:49:10.637686,-3.7143705038703954,0.6704805831515673,-0.6984279367957471,-0.2944256001872592
2023-12-07 15:49:10.668210,5.4054888356737285,0.7006697154835296,-1.3781542823706308,0.6474256645375757
2023-12-07 15:49:10.742100,20.723505360588423,-5.258222949909798,-2.8372638177968805,0.4698697596710363
2023-12-07 15:49:11.030093,2.7740351379148978,-4.615493411446014,-3.623199245266809,-1.543197419304627
2023-12-07 15:49:11.119194,-3.124583791942823,-3.433947315612764,-5.233868002079877,-2.140166519399714
2023-12-07 15:49:11.332611,8.638142193599336,-3.751273045823574,-2.755883165397555,-0.5033409209560401
2023-12-07 15:49:11.643984,-8.594920761641795,-5.299324987862113,-8.324931016285337,-3.78860767311242
2023-12-07 15:49:11.694525,-9.383910379725734,-0.9264090087231824,-4.453283505038704,-1.9806241431334648
2023-12-07 15:49:11.925700,7.704901458801174,2.4191822448930256,3.959739136579385,2.2355190561736102
2023-12-07 15:49:12.031707,8.847780574740451,-1.467173584403442,-0.36651804888235,0.5392298072261584
2023-12-07 15:49:12.197689,10.481885458740836,3.154313399225093,5.015779881368837,2.9185037109245946
2023-12-07 15:49:12.419999,20.565598024470187,4.894140912542217,11.73075372279756,5.580854496100215
2023-12-07 15:49:12.550561,31.513470158158576,-0.6519006074091306,9.958723765157869,4.825749584345053
2023-12-07 15:49:13.004930,18.230199784329702,2.9931162380659417,10.975923784121075,4.588938492652264
2023-12-07 15:49:13.165564,-3.663612413098291,0.3655515627161079,1.8118603012768355,0.0346553846800339
2023-12-07 15:49:13.400167,0.3973174819131235,-0.8885454038775523,0.0166215822093394,-0.1840146281602478
2023-12-07 15:49:13.504950,6.991303024315957,13.082625943873248,19.12215448403464,7.679621614869589
2023-12-07 15:49:13.627595,11.69688206779002,9.588334356315352,16.989873601588283,6.786731188332383
2023-12-07 15:49:13.695166,11.166975725645322,-1.7938129145839723,0.5582204224901891,0.7076275156561507
2023-12-07 15:49:14.098105,-14.700268164032408,1.402315227765701,-2.27276498510788,-1.3206459348592174
2023-12-07 15:49:14.184433,-16.394625612849012,-3.623729605035262,-7.958237103740938,-3.878980284472555
2023-12-07 15:49:14.422060,13.234433104787868,-8.897914714871982,-9.211577449765862,-2.8976927121829523
2023-12-07 15:49:14.628281,5.944653423798014,-6.492177564612402,-6.484332675219415,-2.433622080986552
2023-12-07 15:49:14.838371,-15.645609152042203,-6.767958495141149,-9.099639562804889,-4.873138814015617
2023-12-07 15:49:14.911951,-10.666554121458056,0.4616360683166983,-2.5025475656083165,-1.1332555297759663
2023-12-07 15:49:14.962569,-7.681789388210347,1.4644261151232638,-3.1703322533009928,-0.6549307331995918
2023-12-07 15:49:15.397053,-11.175925237698356,-5.095379527403862,-9.414115672994075,-3.9787901923298055
2023-12-07 15:49:15.955999,-12.741185492323147,2.181016302582698,-0.1018377948484361,-0.323642182483119
2023-12-07 15:49:16.100207,-3.633848702769798,4.835462532736766,4.298364161152305,1.9702284074664744
2023-12-07 15:49:16.193193,19.71786040680158,-3.817754180241127,1.349875450498583,0.5257764674673997
2023-12-07 15:49:16.278742,18.493257938728696,-3.3891721098423946,4.190220553552885,0.9633545669466944
2023-12-07 15:49:16.402827,4.270713349420054,5.518791772967385,7.441127749846456,3.2937899421643
2023-12-07 15:49:17.052028,11.35691150554504,9.059236442702652,8.742235262109627,5.1137965951858
2023-12-07 15:49:17.475469,3.57348135828951,0.3936348400571196,0.6297004669459819,0.4833230086885174
2023-12-07 15:49:17.712060,-6.197487102505485,-5.82402525925604,-8.175052535429147,-3.5356017966087765
2023-12-07 15:49:17.808673,7.203337156639639,-2.098619279926897,-2.3106080747941635,-0.5582297653897818
2023-12-07 15:49:17.976260,-1.2733348711082608,-2.946246329909445,-1.291691028867482,-1.2191319454969427
2023-12-07 15:49:18.224344,-9.71582116830997,-4.3327079574925,-6.7073622628334135,-3.003872603623148
2023-12-07 15:49:18.608523,-0.7309223211314332,-1.9193813952146843,-2.6378682477021687,-1.0557070367876145
2023-12-07 15:49:18.768125,-5.978822356963566,-4.182613831761839,-1.58106396367373,-1.9315695369727688
2023-12-07 15:49:18.995801,4.38692481685433,-3.443435485833252,-0.7537258310932009,-1.0649275561002085
2023-12-07 15:49:19.142059,11.279967399327012,-0.5165817031132754,3.967295657439799,0.9526043271187992
2023-12-07 15:49:19.326261,-5.594251227094919,-2.957244843009078,-0.5372510235434486,-1.35355270559181
2023-12-07 15:49:19.444610,5.581102451178399,-1.6496739618587908,-0.8479029686596642,-0.534236312939236
2023-12-07 15:49:19.509749,17.208771572880465,0.4361063508708387,4.238915641670203,1.3957538252828894
2023-12-07 15:49:19.766861,5.595014406202536,-2.290025865571482,-0.409480967932051,-0.6854855416449928
2023-12-07 15:49:19.956620,0.6312898297714231,0.1673802579895154,-1.8394658717000567,-0.2376876145093
2023-12-07 15:49:20.227229,-8.193433456131368,5.898817960942717,3.0371272399207743,2.338852843743935
2023-12-07 15:49:20.590160,-8.181595355656814,9.136781390516514,2.396041170842884,3.5803847068464374
2023-12-07 15:49:20.885684,7.483511247091895,10.077271747209805,-0.4088582451273144,3.7329319844539706
2023-12-07 15:49:21.026964,4.411840044702196,4.216104424324321,-0.9796513364475208,1.2163625802437112
2023-12-07 15:49:21.462430,-12.52710402231359,-1.2330817791219173,-0.6107779309107108,-0.7059549856997402
2023-12-07 15:49:21.569431,-17.075110928018653,-0.7807441218230292,-1.3150359977121755,-0.4993084371686088
2023-12-07 15:49:21.746611,-5.189015233376311,-1.1482491368718448,-1.869317982932109,-0.8175207991327816
2023-12-07 15:49:22.280574,1.945376229959148,0.0963902413790827,0.2642872166074341,0.1129740155669291
2023-12-07 15:49:22.437429,-3.478869470966451,0.7064946993370963,1.4510509835117766,0.4811183504339187
2023-12-07 15:49:22.574634,-1.4370570018759372,-0.5645344819854834,2.765596275832912,-0.0359667775958051
2023-12-07 15:49:22.606888,5.924753103421777,1.1481669693517629,8.44288670510423,1.6505417559586384
2023-12-07 15:49:22.746276,7.639598747335508,0.8130181477071099,8.380986790648594,1.5497891112697926
2023-12-07 15:49:22.955459,1.8445266392203723,0.5756901231650929,0.346106535020205,0.2057759070541454
2023-12-07 15:49:23.337476,-1.3666194260581936,0.4811099724512077,-0.414698687996799,0.1638784930931612
2023-12-07 15:49:23.526356,-2.4884207351183427,-1.2182462263534812,0.4447633175878868,-0.3658607068957111
2023-12-07 15:49:23.579438,-17.699731312650492,3.070835410061935,-4.919594840975722,1.1296269129288268
2023-12-07 15:49:23.818798,-13.393352092496997,5.242983460649708,-3.0991580431241035,2.2278601503892115
2023-12-07 15:49:24.079345,2.8467301969849497,-3.010278596978505,1.5328198132832451,-1.1844904894102104
2023-12-07 15:49:24.573208,-6.536939901324416,-9.145757898044844,-0.1103397117920524,-3.54264195262992
2023-12-07 15:49:24.730171,-0.7144442340293583,-3.219427909488373,1.2650817535192949,-1.1387337673653724
2023-12-07 15:49:24.947557,6.459154591917153,-0.7596568229404385,6.741847639888916,0.2549313925735728
2023-12-07 15:49:25.063899,-4.523755473866579,-9.931771935309737,7.095304296323736,-3.0248868930720207
2023-12-07 15:49:25.094893,0.5626651242483638,-8.72879978551186,2.579587861217085,-3.4760134854848674
2023-12-07 15:49:25.194699,-2.564727508095615,0.1333617081932748,2.5512915139335672,0.6205934478294353
2023-12-07 15:49:25.426270,-5.201946473502889,1.391810579933644,4.044684215158672,1.5548132033994488
2023-12-07 15:49:25.508712,8.040292807063851,2.666372143856256,0.9769282357746496,0.6527707577949853
2023-12-07 15:49:25.550614,7.631246022983438,0.974759666967406,0.6411255379619166,-0.0999547982512896
2023-12-07 15:49:25.657490,6.587059203888686,-3.916869430729601,2.2456449935111,-2.032479713926426
2023-12-07 15:49:25.815563,1.704579589705973,-0.424423995780586,0.9408346230823448,-0.2624581520181752
2023-12-07 15:49:25.885363,-5.442960846166855,3.0939037500225988,2.3719392210474344,2.222118914658526
2023-12-07 15:49:26.225432,13.236262910013668,-2.366075675798195,5.028680841199677,-1.7953608215555097
2023-12-07 15:49:26.392892,26.7834806815619,-1.956190665303738,2.279816464765178,-3.4711595259809283
2023-12-07 15:49:26.464901,7.4637208140825,5.377964399581206,-0.028892369849081,1.6688925766179512
2023-12-07 15:49:26.608390,-10.374642184058072,5.388596797677974,0.0558249416220405,3.6943829834037047
2023-12-07 15:49:26.669405,-5.65063224028377,5.593221273025467,-2.2664075971887945,3.015172343489867
2023-12-07 15:49:26.852183,-7.868318875828293,6.956143373447423,-2.094136905996114,4.005819014494448
2023-12-07 15:49:26.902970,-12.714540438572682,4.257270426829465,-1.5821027486634012,3.416146255042773
2023-12-07 15:49:26.947949,0.1170286782392833,-0.5537265327619758,-1.020211175987937,-0.4289698912634871
2023-12-07 15:49:27.013080,-1.5526991485284791,-6.523195327565883,2.947175692827241,-2.6845440340138484
2023-12-07 15:49:27.082292,-2.586622517367574,5.199821509046897,-3.11571734541654,2.458499268286536
2023-12-07 15:49:27.205538,13.537893649287753,17.61412597196955,-9.624407922190905,5.644402294387625
2023-12-07 15:49:27.240697,2.604937390686871,0.9166481027388298,-1.2860621782453063,-0.1360048856460569
2023-12-07 15:49:27.410859,-6.7850803647123605,-7.460653581508613,2.3301002711977468,-2.555756265066857
2023-12-07 15:49:27.649359,5.0567798515921245,2.3782902906064955,-1.4662944883748097,0.2149188149786846
2023-12-07 15:49:27.817991,-7.702329184237563,-0.4331932552513055,-0.8441682951588072,0.8119851294846707
2023-12-07 15:49:27.896862,-15.912697184885172,-3.0672527989563942,-0.7477251713579964,0.787114306741479
2023-12-07 15:49:28.126144,-2.903391174802881,0.6648827952503672,-1.1030129145002865,0.5987965119485598
2023-12-07 15:49:28.252699,-7.772163000152424,-1.7844565498107263,-0.4306813028243251,0.2167220537575817
2023-12-07 15:49:28.608123,-6.656185269626861,0.1983257158674504,-1.2901698368865164,1.0231578556764775
2023-12-07 15:49:28.939487,3.1418708146579744,7.315665013043127,-3.503145670278757,2.844356401937585
2023-12-07 15:49:29.092671,-7.761343187292248,5.264891587111339,-4.760325965618916,3.5079448509932987
2023-12-07 15:49:29.359471,-11.59377601796472,-2.868458637289877,-1.0845786676916565,0.3534615377301656
2023-12-07 15:49:29.483197,-8.48521648549623,-4.879312791571386,2.005996167507859,-0.8569872631270747
2023-12-07 15:49:29.653847,-12.81472459644244,-3.858994203014386,1.624812127597199,0.4783305868091643
2023-12-07 15:49:29.967771,-7.3134290140034,-5.440202160823374,2.2343910009561947,-1.3472678827208238
2023-12-07 15:49:30.171976,-6.33147997900848,-0.4128543627664526,-0.906670992439736,0.8011769890784326
2023-12-07 15:49:30.221134,-12.436929834228,3.789346912236098,-2.5608303387353497,4.129027023581934
2023-12-07 15:49:30.573224,-6.027763875172554,0.7824182165350805,0.2897227791162735,1.595013110779986
2023-12-07 15:49:30.755502,4.156878856179792,4.174090784338093,-2.2945944759028265,1.0919436099745516
2023-12-07 15:49:30.887610,11.19109031218552,3.18090544222972,-1.312003267307444,-0.7885331107971674
2023-12-07 15:49:31.321982,7.034837091120974,-3.005080559053151,2.6641937041229635,-2.90838716240231
2023-12-07 15:49:31.906881,-10.250267813309264,-2.944307845504351,0.2410284392822301,0.4399947062180209
2023-12-07 15:49:31.992079,-6.094286065342949,-4.010261428631117,0.3302714558778249,-1.0133855871374258
2023-12-07 15:49:32.082120,9.990210146939951,-0.855620690855659,0.8446427426527878,-2.624639407320166
2023-12-07 15:49:32.219045,-3.520608009808322,1.5929134583859688,-0.3616330527248845,1.5273744855562053
2023-12-07 15:49:32.336972,-12.805273142702829,3.2383293242677142,-2.834520070744333,4.1942601621251
2023-12-07 15:49:32.879400,0.5493893378924505,10.451421739334284,-6.94338621521454,4.870030953137549
2023-12-07 15:49:33.078673,0.1251936261695807,5.7061890106645565,-2.846683698709399,2.7791279622666325
2023-12-07 15:49:33.245026,-5.969280529718584,0.4969565716756691,0.1841966050155983,1.5325132117490627
2023-12-07 15:49:33.365241,1.0055205718509703,3.7504006617643526,-2.313998455245654,1.529084338449933
2023-12-07 15:49:33.728969,7.173356634181181,1.5308974847997336,-0.458331880514001,-0.8951496756372527
2023-12-07 15:49:33.868316,-3.039156731843687,1.0750151346757175,-1.0395333571737284,1.0784409780557027
2023-12-07 15:49:34.008964,-9.077236884551816,5.473646061902612,-4.470153270948419,4.566205574568651
2023-12-07 15:49:34.446688,0.8787769763917294,8.612184043322028,-4.872545064851649,4.065233002690049
2023-12-07 15:49:34.802610,-0.5513750450000029,6.3699367177196855,-2.9882199576720847,3.339232823772761
2023-12-07 15:49:34.899914,-0.8582927079031748,3.6507359357204834,-1.7444884016899296,2.005721312289687
2023-12-07 15:49:34.941916,-2.6244556327948225,2.256002211623464,-2.234614726886812,1.5375498760522173
2023-12-07 15:49:35.167093,-14.501867986357478,-2.988100900617072,0.50658925469051,2.0628977829767767
2023-12-07 15:49:35.372234,-3.814301803032956,-3.221186620476054,1.6664221708816234,-0.8619052401571445
2023-12-07 15:49:35.609904,2.887479588150807,-1.6367216089964036,1.2796480495602678,-1.7645878422977246
2023-12-07 15:49:35.803325,-13.8513735636089,-3.8352184665931977,1.1134188622138714,1.4367638809407122
2023-12-07 15:49:36.477628,-15.21030117665399,-0.5825400487717252,-1.1088240607100224,3.5432039907595536
2023-12-07 15:49:36.590328,-4.446166818995047,4.423828135068332,-3.3145705480860803,3.418024838501854
2023-12-07 15:49:36.736207,1.6258915563395475,4.923150965095093,-3.0622512047269748,2.096429493360842
2023-12-07 15:49:37.302793,-4.726574567418611,1.0224601579505157,-1.1513428204711145,1.661368284898282
