Timestamp,TP9,AF7,AF8,TP10
2023-12-07 15:02:45.302291,-0.7865222193348296,-0.2011431549162397,0.0215823362653066,-0.40129798402335
2023-12-07 15:02:45.302291,-2.7863938107720165,-0.5131538736746369,0.1258360754696187,-0.8389960967644964
2023-12-07 15:02:45.302291,-4.021453761742923,-0.684405989472877,0.1412493661862183,-0.9119080877073452
2023-12-07 15:02:45.303286,-4.001234134108733,-0.4380625128849931,0.1053154363687662,-1.437941625348357
2023-12-07 15:02:45.303286,-2.535836866520484,-0.3086132158387664,0.0642693551480429,-0.920467742388095
2023-12-07 15:02:45.304289,-0.3854113620207606,-0.5452397636192702,0.1614127545137978,0.3549916258070053
2023-12-07 15:02:45.305300,-0.3637991138339693,-0.3441663697303008,0.387345054360377,-0.6122935633370414
2023-12-07 15:02:45.306316,-3.857950418425392,-0.0495269693308493,0.5390492269633745,-1.7219360321131547
2023-12-07 15:02:45.307308,-5.679706347443723,-0.4057667624315131,0.6287235545858876,-1.373360682056885
2023-12-07 15:02:45.308310,-2.9821511421311127,-0.5657599032998917,0.6482578359409078,-1.2967389459205994
2023-12-07 15:02:45.308310,-1.3570743000248866,-0.1906528133610879,0.4155180897703014,-0.2020765989970519
2023-12-07 15:02:45.309328,-2.566330805697575,-0.2674134639694946,0.1951474654253487,-0.4326688260309867
2023-12-07 15:02:45.338224,-4.7734286729042825,-1.0901781307697906,0.2734629269762334,-3.260183372380916
2023-12-07 15:02:45.338224,-6.903511732302533,-1.585409805119745,0.3421702959542796,-3.5046683333532256
2023-12-07 15:02:45.339235,-4.691840958160719,-1.1537930785316493,0.554235241442261,-2.4397940978260806
2023-12-07 15:02:45.339235,-0.6784250492408989,-0.7773404490696042,0.9879143642338688,-1.8870260100023075
2023-12-07 15:02:45.340228,-1.255070785795692,-0.7916477312131148,0.8885537125713375,-0.9767442268745268
2023-12-07 15:02:45.341229,-4.4701422016425205,-0.7894036590124468,0.4611834484385696,-3.255368291606846
2023-12-07 15:02:45.341229,-6.820176703404915,-0.8491039579746555,0.550098536106903,-5.9424504231502855
2023-12-07 15:02:45.343227,-4.852606286337481,-0.6820612265775395,0.9373756696148018,-4.373072290057029
2023-12-07 15:02:45.343227,-0.0227765198546729,-0.3109725899130141,0.917267148717442,-1.0288763302267758
2023-12-07 15:02:45.347227,-0.2952454517306401,0.078328805702875,0.8288644664189826,0.6426182676275147
2023-12-07 15:02:45.347227,-4.368469265786526,0.2000126031206515,1.1542905720740573,-2.075546399624047
2023-12-07 15:02:45.348228,-6.999399702596,-0.5163198884247359,1.0494768540912682,-4.956992722184839
2023-12-07 15:02:45.401843,-6.88996643372938,-0.8920539858737715,1.0574562488367916,-4.089358733491036
2023-12-07 15:02:45.402370,-2.914027719763224,-0.3967842605773509,1.6173248039449324,-3.2553667621940057
2023-12-07 15:02:45.404391,-1.3045052178481904,-0.3266426440856529,0.9064741193136584,-1.4413736464246718
2023-12-07 15:02:45.404391,-6.521717088902723,-0.4718572628271361,0.0959709055800717,-1.5000705779145034
2023-12-07 15:02:45.405376,-10.774294662531776,-0.5527769420433182,0.3633359776569431,-6.804704314627267
2023-12-07 15:02:45.405376,-9.422437436357615,-0.8627947063609588,0.3438645558635991,-7.814808042685846
2023-12-07 15:02:45.406385,-4.594599803389568,-0.754179809933391,1.3746236883325702,-2.905150577155544
2023-12-07 15:02:45.407378,-0.928313319896084,-0.4903713162307512,2.479368283334829,1.0181044701480593
2023-12-07 15:02:45.408380,-6.052441836800681,-1.165294995739352,1.3033566109198735,-1.2747471218643822
2023-12-07 15:02:45.409381,-14.017168224197912,-2.0339643059131887,0.7089673937375385,-8.789729892070067
2023-12-07 15:02:45.410377,-11.07613276234078,-1.4089555707845018,1.0924521636450462,-8.593859897851868
2023-12-07 15:02:45.411378,-4.047272337157223,-0.2501916050935086,0.5677771288618721,-3.8691403205989374
2023-12-07 15:02:45.436267,-4.1043402015296495,-0.3113002925426249,0.6315578699390477,-5.108158054864716
2023-12-07 15:02:45.436267,-8.41380597337745,-0.7330448834275212,0.9999610145996988,-6.740486917834272
2023-12-07 15:02:45.437272,-13.44207387118499,-0.5891834477257558,0.8567683407959094,-9.079655594321778
2023-12-07 15:02:45.438301,-13.216519788647457,-0.0101702369598465,1.0339669838695889,-9.296939661599543
2023-12-07 15:02:45.440548,-4.97376615892914,0.348901186932988,1.048013754074048,-4.970107809697413
2023-12-07 15:02:45.441756,0.2580873686365783,-0.055061777653965,1.1056863752984256,-3.0618667225990897
2023-12-07 15:02:45.442954,-4.341617790043031,-0.0656334796857767,1.3923967887252326,-2.2880329444324485
2023-12-07 15:02:45.444040,-12.765403356818444,-0.3167491742683989,1.5658827077383997,-6.743761076394518
2023-12-07 15:02:45.445047,-15.436053550811298,-1.7756956884557509,1.662902730961142,-10.693599312797796
2023-12-07 15:02:45.446088,-6.660512826728304,-2.0875574073586827,0.5899915600984331,-5.789192931034463
2023-12-07 15:02:45.447119,3.990245070660846,-1.6211524072989936,-0.4075383113878678,-5.331204424088851
2023-12-07 15:02:45.451118,-1.817100318711658,-1.3924747124485457,-0.094856824844879,-6.13981594426544
2023-12-07 15:02:45.470032,-17.492891812998646,-0.2276625558427983,-0.3901239515132962,-6.777955533252256
2023-12-07 15:02:45.470032,-16.965009079176752,-0.1539662992957677,-0.1697628449476765,-13.280029631760366
2023-12-07 15:02:45.471034,-2.3471127549272515,-0.787331582816655,1.2522842371842713,-12.564559067939827
2023-12-07 15:02:45.472150,3.132480255735803,0.4206711045841469,1.2596283372999095,-6.790271641595921
2023-12-07 15:02:45.473338,-5.10536403783254,1.4577395202267265,1.0137030442067403,-3.463721312510141
2023-12-07 15:02:45.475344,-17.077544726379198,1.4074396883010984,1.9474123425661711,-6.430530426493671
2023-12-07 15:02:45.476374,-23.620386996774275,0.603805665858873,1.6969910166144724,-14.392377739926292
2023-12-07 15:02:45.477414,-17.668864629296333,-1.0700862763801495,0.933030471967877,-8.46085328757568
2023-12-07 15:02:45.478425,-3.869730340135857,-1.4453899861481694,2.1800808148448496,0.5606347374279085
2023-12-07 15:02:45.479698,-3.323290577272297,-0.0098808700079087,3.2847570557944588,-3.641813727037155
2023-12-07 15:02:45.480720,-19.465883581591942,1.2449681812608948,2.389267813411896,-11.217175569601697
2023-12-07 15:02:45.482982,-27.06222544649724,0.8261395516615636,1.5782624463210988,-19.0759953044693
2023-12-07 15:02:45.535616,-17.821375529622653,-0.719758510747106,1.9897551350334748,-17.108863717945628
2023-12-07 15:02:45.536675,-5.189268446798509,-0.7039971074481487,1.7915631097436435,-8.550974398980586
2023-12-07 15:02:45.537695,-4.433736541136534,1.497699699512122,-0.0680192157015673,-9.215773555488449
2023-12-07 15:02:45.538707,-20.49172271105863,2.2465692687385648,-0.0504114776717439,-9.941408679014843
2023-12-07 15:02:45.539712,-28.718941535700544,0.2268715914533234,2.175691636793262,-10.300961621757612
2023-12-07 15:02:45.540720,-14.677558933297036,1.3375130423586947,2.344584322946053,-8.85977557250575
2023-12-07 15:02:45.541865,-0.6148998701627393,5.810986559767714,2.39167716093002,1.4986603829354224
2023-12-07 15:02:45.542866,-3.5206508223304587,5.007423178726135,3.281214269954663,-0.6726053037806048
2023-12-07 15:02:45.543918,-18.871566606657744,1.5758940752848811,2.8079386336254686,-15.002900459015416
2023-12-07 15:02:45.545049,-29.32819320473589,2.5899145813503366,4.043056756895922,-15.244352525546054
2023-12-07 15:02:45.546427,-22.6128159899062,2.734713905111805,6.138040395876105,-11.198026947153505
2023-12-07 15:02:45.547545,-7.1668841457145165,0.8345277496918707,5.360425214186209,-15.138926073506909
2023-12-07 15:02:45.571336,-2.826519116887263,2.673754660072712,3.884822991827853,-10.21481301180176
2023-12-07 15:02:45.575580,-16.427366145652012,4.707687937001765,2.7623481837778607,-2.106040746797252
2023-12-07 15:02:45.576589,-26.63309963278746,3.168589537673409,0.7821586294601603,-8.623910363686411
2023-12-07 15:02:45.576589,-18.087503322652854,1.7303861609292015,-0.9011181451239074,-12.72835585451463
2023-12-07 15:02:45.578830,-1.1867167816538415,0.6748652949937424,0.1632731987676985,-2.9792270782529062
2023-12-07 15:02:45.579871,6.107112002047145,-0.4475532420746613,3.673375756061583,1.8022038189292264
2023-12-07 15:02:45.581123,-8.866920072620513,-0.7518995546594425,4.096316435557167,-7.158311488954523
2023-12-07 15:02:45.583241,-27.12633039035225,-2.296909000676405,1.837425422558865,-16.985536750885846
2023-12-07 15:02:45.583241,-22.20929404034529,-1.0677798745207645,3.21447366970466,-16.081679532363733
2023-12-07 15:02:45.585245,-3.847268982521032,3.349966270570497,2.97657308048363,-6.368719325220849
2023-12-07 15:02:45.587249,5.160425456586508,2.6531890041297563,0.6928990661389485,4.605570728653007
2023-12-07 15:02:45.588264,-5.742036020245962,1.7593988881335108,6.648704657300932,4.889012973191133
2023-12-07 15:02:45.634084,-24.76878559388824,4.839859689617312,8.582543805929797,-7.19663377248098
2023-12-07 15:02:45.635066,-26.542670468693057,5.340965999140841,-1.7231077891193625,-13.603609332063282
2023-12-07 15:02:45.636066,-4.46266657748813,5.375022095037782,-2.489798496475593,-7.620007805610709
2023-12-07 15:02:45.637075,13.278345143231888,5.063176012233778,5.24788771808113,2.24595349052176
2023-12-07 15:02:45.638060,-1.497887094682117,1.5141562221682323,3.426405520557883,-1.1231306681611632
2023-12-07 15:02:45.639060,-27.690378903403456,-1.695469358511538,0.8371970248578411,-18.95969902674949
2023-12-07 15:02:45.642062,-31.975818019462643,-3.40984975266186,3.906135614567674,-17.804784523462565
2023-12-07 15:02:45.643064,-10.463460118077595,-1.483380863128828,5.296275152852876,-0.3276636347619355
2023-12-07 15:02:45.645067,14.517032944806004,1.9186245372764643,4.301979604622669,7.615290733810005
2023-12-07 15:02:45.646065,6.080169576129408,1.4601210610534838,2.2385717601300863,11.547899362958734
2023-12-07 15:02:45.648063,-24.80166612415228,1.6481023773493604,2.2256405808173074,3.0703736847925294
2023-12-07 15:02:45.649073,-33.95115407581588,3.0641586746072584,2.7164682691651487,-12.867862272203192
2023-12-07 15:02:45.669510,-11.513574738843367,3.680730982236578,0.7509049919166921,-8.888159305323851
2023-12-07 15:02:45.670545,18.651424408344123,4.448859459737935,1.864708702016753,4.08176554087203
2023-12-07 15:02:45.671555,15.808484048306768,1.753952004447341,2.066895714912778,6.356916485995766
2023-12-07 15:02:45.677698,-13.69447915525518,-0.1004884309344333,0.1889409818747027,-4.443119431515002
2023-12-07 15:02:45.677698,-28.76338146824124,1.2451016740216654,3.4143212139796275,-12.612159060777188
2023-12-07 15:02:45.678712,-19.67432338746232,-0.3506959935039264,3.1876574022103314,-2.6524917119272056
2023-12-07 15:02:45.680709,10.357279856713292,-0.4313464616199731,-0.8315417811947216,3.981313047622141
2023-12-07 15:02:45.682713,17.502513748365267,2.113260384526918,-0.0552203106897565,-2.4758733454053874
2023-12-07 15:02:45.683713,-17.600252978105463,2.7246786600967265,0.6148746346015281,-6.211250787482263
2023-12-07 15:02:45.685712,-27.063420267669976,2.706858453935803,2.2100289303883653,-8.814873237821123
2023-12-07 15:02:45.685712,-0.4988451039476904,1.9560793498925289,4.0020572183194965,-6.5305706871928
2023-12-07 15:02:45.687711,20.653902048745145,3.616676537170828,-1.2137419759987744,10.058621124647054
2023-12-07 15:02:45.702751,22.97335260156301,5.091843082675285,-6.208413380534979,19.396860034954823
2023-12-07 15:02:45.702751,-3.9340602065656034,0.9391207939018472,-3.483244775356104,0.2223102679486257
2023-12-07 15:02:45.705080,-22.876213951076025,-0.3880310491842647,1.605032197648104,-16.039185994646385
2023-12-07 15:02:45.706272,0.6449910563335595,1.6012292295823711,2.7195262676706022,-2.975427945032209
2023-12-07 15:02:45.707278,26.057681940934565,0.3999359385061004,2.0678973586806872,14.29906994923262
2023-12-07 15:02:45.710571,26.36798475666528,-0.1675597078164391,0.9924580725897632,21.77484009444585
2023-12-07 15:02:45.711579,11.934526086734564,1.903937654198071,-3.6369600731194143,5.645552753583143
2023-12-07 15:02:45.712588,-2.206699871656004,3.9777707537256295,-5.664320314630322,-23.906427091523064
2023-12-07 15:02:45.714092,6.789485192984858,4.145462404088061,-0.4501452399999647,-9.04048176816696
2023-12-07 15:02:45.716137,32.447652015058445,3.527979216472326,5.250168778222674,20.30415571899417
2023-12-07 15:02:45.718203,38.458815612491456,2.511557331682288,4.610366707940734,17.110276070639973
2023-12-07 15:02:45.719214,17.29772730933327,0.8884061227887605,-0.4652618770723603,14.84661189234204
2023-12-07 15:02:45.769008,-3.3472686979207444,2.296680461955949,-0.588298299467349,8.135929267966358
2023-12-07 15:02:45.769008,-0.3306824262131329,2.111788926708142,3.358766477061689,-1.3211242275957913
2023-12-07 15:02:45.769008,25.72682451023564,-1.6921372496257887,5.608459644487811,9.423001884772612
2023-12-07 15:02:45.773050,45.781025614293085,0.2273495167029039,6.589503391341317,11.012438266526448
2023-12-07 15:02:45.774060,26.10241588197672,3.682749461117982,1.8149688020940944,5.189752275947146
2023-12-07 15:02:45.779137,-9.65494402527195,1.1165578095400472,-5.85065047112845,5.12983843722537
2023-12-07 15:02:45.779137,-6.991313474443851,-2.852888355263574,-6.6112703563413815,1.6978579904175706
2023-12-07 15:02:45.781304,25.57950321942946,-4.521766014742043,-3.5278079156744018,10.907412161693774
2023-12-07 15:02:45.783318,41.29161001254791,-1.3397682783468527,-3.720894537842819,22.96848568026995
2023-12-07 15:02:45.784325,20.80441664839436,3.014028038472404,-7.025550222682628,16.367345077690583
2023-12-07 15:02:45.786342,-11.030738532927325,0.678865646790017,-5.069462255160624,-1.4148729049118085
2023-12-07 15:02:45.787345,-11.468314387129125,-1.9135535616240429,-0.0229536453850407,-16.024996363439623
2023-12-07 15:02:45.806073,20.046414881035208,1.0043050236070836,-2.57640043689294,-2.348180582399898
2023-12-07 15:02:45.806073,41.16221122647748,3.1138182210191108,-3.047300744329561,25.412209862583435
2023-12-07 15:02:45.808092,29.61268890967085,3.036343752070896,1.9729660329836465,22.48373005236568
2023-12-07 15:02:45.811109,-5.827764618680449,1.84270302171026,-0.198400721558287,2.747345662996159
2023-12-07 15:02:45.812110,-20.799604189456563,-0.7316432845079018,-3.18718886073353,-7.048973435442265
2023-12-07 15:02:45.813615,8.404125309106858,-0.712796987528141,-3.050282620440176,-1.859211158529465
2023-12-07 15:02:45.814618,35.15285017829325,-0.4109055714586067,-5.188118788656467,14.994664071897224
2023-12-07 15:02:45.816620,28.688418848985027,-2.2371050781672874,-5.6852991042389,13.313898869673206
2023-12-07 15:02:45.818647,0.4827062408484511,-1.5053895261208392,-4.281299311645382,-4.609899067670014
2023-12-07 15:02:45.819656,-17.2686406625048,0.8019105720985695,-0.7392333854698852,-6.281510722935535
2023-12-07 15:02:45.820707,9.601371089193954,2.80764696804494,1.829380892121824,5.681571548361557
2023-12-07 15:02:45.823717,43.11591842244538,3.29467996221918,-0.1354000137756097,13.04327189617408
2023-12-07 15:02:45.869742,32.69128563537685,1.0816429211394247,0.1684204811341395,4.5786585263674935
2023-12-07 15:02:45.870739,-1.1951839874068262,0.9835370253247434,0.2240706877642927,-8.286780756012735
2023-12-07 15:02:45.872914,-17.217406437644414,2.457086265417407,1.7494696800920773,-6.54825381573902
2023-12-07 15:02:45.875971,4.277916244019737,3.056775863994812,9.03214174069518,6.407663244464357
2023-12-07 15:02:45.876971,34.595998154592785,3.1166550851224817,5.077833785982759,15.143520821190968
2023-12-07 15:02:45.879126,34.764962325004575,0.9635151329704512,-6.214884303471221,6.195135521379041
2023-12-07 15:02:45.880135,10.538905085958932,1.1140327887189976,-3.0291013937116222,-2.174688528923688
2023-12-07 15:02:45.886297,-13.017895990287396,2.6391333387427327,3.5525729482721085,2.6477792038982577
2023-12-07 15:02:45.886297,-3.2550100543895506,0.4015732888502436,-0.3039819288032495,-1.2131515785088218
2023-12-07 15:02:45.888390,29.90871051673604,-0.5823551964446181,-4.613372791816447,0.8549794320781661
2023-12-07 15:02:45.890408,31.57955296533859,-1.1526236664461884,-5.183369984200068,16.512283364866512
2023-12-07 15:02:45.891409,4.179065755863284,-2.4114891918374664,-6.816422035219968,8.69244684795468
2023-12-07 15:02:45.899589,-15.314391895761664,-0.2071004731557995,-6.260415811989123,-5.376429766648935
2023-12-07 15:02:45.899589,-6.492468647636463,0.6639215885188251,-0.334898306544801,8.810027624885413
2023-12-07 15:02:45.901597,25.364600758014586,-1.0548467962850054,2.435376574783625,24.51502701390429
2023-12-07 15:02:45.904693,32.73614961343197,-0.8955027131348416,0.0892235235533649,24.9294205295364
2023-12-07 15:02:45.905694,12.460080690255031,0.2394247231044665,0.7951222384161237,16.06440220901078
2023-12-07 15:02:45.906697,0.60900597900432,0.1733659214688974,1.3319411599768471,-0.9305674118655456
2023-12-07 15:02:45.909721,1.1586470622766063,0.2044845039331916,-0.9512650121253023,0.2451612586667886
2023-12-07 15:02:45.911753,26.44272659105335,2.019048311343291,-2.6114439036896817,17.88364924260257
2023-12-07 15:02:45.912753,46.64945660331076,2.940556749950424,-5.392621200123354,15.02385154434501
2023-12-07 15:02:45.915261,16.640149114173898,2.9419573149609124,-5.5758221408571735,2.5266258748233583
2023-12-07 15:02:45.916268,-10.051729761938732,1.5310315163482875,-2.2300279849586264,-1.26251204841057
2023-12-07 15:02:45.919280,4.481507532100364,-3.075059228471568,-2.9628688069547886,-1.0931140498915723
2023-12-07 15:02:45.934447,27.586347061825407,-3.592738986717284,-6.188790225532559,10.343242457723203
2023-12-07 15:02:45.935448,39.40560030485461,-0.1936058899914728,-5.5567600804046124,20.641469849353253
2023-12-07 15:02:45.937447,26.923790889164472,0.6607319976704811,-3.649553196479672,12.325479749226194
2023-12-07 15:02:45.940448,0.2488571297577044,1.8303474434870068,-5.004337565091882,-0.4294151680424627
2023-12-07 15:02:45.943447,-1.0230832929497091,3.013881259908522,-5.353238073490138,-3.4970816069109025
2023-12-07 15:02:45.945449,23.32846428525661,1.8350933395786933,-4.337935036342885,5.528510681796549
2023-12-07 15:02:45.946478,34.057621576018434,0.5282294221460689,-6.608183196927951,16.04615247333908
2023-12-07 15:02:45.950076,18.91352273534253,0.913172562587756,-6.516152955627697,14.599552204161172
2023-12-07 15:02:45.952153,-3.3376655517470617,1.158499155196561,-4.1665450458328905,6.896972979197675
2023-12-07 15:02:45.957419,-11.976336893660983,-1.2310283403590652,-6.513043719186851,0.0327132293103727
2023-12-07 15:02:45.957419,7.018159113094479,-1.5485509197523988,-8.316275203218803,2.4367167798081395
2023-12-07 15:02:45.959442,29.34919970696876,-0.137580652445197,-5.561615498035417,15.154707574579133
2023-12-07 15:02:45.999121,20.79259683767984,-1.9152488142910056,-3.2441644728686825,14.593135861892428
2023-12-07 15:02:45.999121,-3.769107123802783,-1.2570333485173937,-3.4841039921730874,3.069974511547665
2023-12-07 15:02:46.001170,-14.176649278607425,1.6116044902908209,-3.100114110525005,6.245284823916927
2023-12-07 15:02:46.004189,2.766599511591397,1.2532508935853677,-2.3157795149492166,16.264774107616404
2023-12-07 15:02:46.006197,29.783248052788057,0.51945895489313,-5.601683325939043,17.078376471713103
2023-12-07 15:02:46.007207,27.56523111868524,0.1941113983574691,-8.028117854185385,12.653248489804836
2023-12-07 15:02:46.034502,2.0844290005180333,0.7320051441300148,-4.371762265467246,4.490108355386029
2023-12-07 15:02:46.034502,-3.121483373451591,2.2247492418473085,-0.8444728145067987,-4.650256843440333
2023-12-07 15:02:46.037615,18.93628106650259,1.271288572509059,0.3913936785832907,-1.1382818977963407
2023-12-07 15:02:46.040738,34.070455256781,0.1819915545593755,1.2543003271096722,12.786135326175929
2023-12-07 15:02:46.042753,25.21486729863647,0.2575174231466994,0.4273020569126612,17.08205661329875
2023-12-07 15:02:46.044753,10.891249472655945,-1.7192944546222415,-2.1821372431684045,8.840272993551496
2023-12-07 15:02:46.049965,2.127125703391929,-3.9272573139834033,-3.277627694351032,2.641611582396893
2023-12-07 15:02:46.049965,4.299026143550075,-3.232785067943045,-0.8184393061059235,5.838777542892717
2023-12-07 15:02:46.052963,22.095764460498263,-1.6330645305996467,-0.4006956048388905,11.52500831505596
2023-12-07 15:02:46.055134,26.53260008827909,-1.918181505650585,-1.6129649258673249,9.981107233356106
2023-12-07 15:02:46.058156,5.237371539714929,-2.2804956523618145,-0.9299602729437872,3.8596453247464138
2023-12-07 15:02:46.060166,-7.613035517330641,-1.3797307106757044,-5.604458395166019,1.2719174631572685
2023-12-07 15:02:46.061204,1.030556043918878,-2.44818936739032,-11.237881635906092,3.413408494610221
2023-12-07 15:02:46.064211,15.234183403499024,-5.330193349504898,-9.355001104588412,7.260547457938877
2023-12-07 15:02:46.066224,17.162014136368736,-4.380863794376664,-7.349220341737487,9.40261128463007
2023-12-07 15:02:46.067269,2.4975166416748023,0.3600427713170223,-7.323876734879726,7.231057752715845
2023-12-07 15:02:46.069283,-5.411793421203932,1.6576212847825575,-5.364080548201851,0.7747461563530713
2023-12-07 15:02:46.075498,0.0878083417259198,-0.4985731035915203,-2.6654101988984147,-0.0434199644238365
2023-12-07 15:02:46.123010,5.908436767353262,-1.000175649412166,-1.5266070043317366,9.481373294526907
2023-12-07 15:02:46.124301,12.677845370544958,-1.403987659279646,-2.7186070109079488,11.043444553163567
2023-12-07 15:02:46.125317,10.266646829509044,-2.627532274888412,-4.10681119055757,0.4344422526715107
2023-12-07 15:02:46.129359,-1.2685525540567928,-2.656930156192208,-3.9081757868795575,-3.121652268890064
2023-12-07 15:02:46.131376,0.4088624871810449,-1.4259149073922208,-1.914349476069918,1.4488929821178478
2023-12-07 15:02:46.134527,11.882307404410728,-0.0335628997773382,-1.0732246764555171,5.891176036123389
2023-12-07 15:02:46.136573,17.18105756167354,-1.2589882667416086,-2.9371574739291564,10.430833739077649
2023-12-07 15:02:46.137583,10.624823640249357,-3.4419691647061383,-3.814829184585245,10.49551765634126
2023-12-07 15:02:46.140655,-2.545012767177379,-2.648450824912183,-4.2432833381025645,5.680574658532809
2023-12-07 15:02:46.143097,-2.372775880804004,-1.0349340675426075,-3.951527151576909,4.594380020943208
2023-12-07 15:02:46.143097,10.36615596966262,-0.7602660568711508,-1.684865086637168,7.183168072555572
2023-12-07 15:02:46.147141,13.363902924409006,-1.4837268444677558,-1.696632411386011,7.617855160090952
2023-12-07 15:02:46.148141,6.670238115883334,-2.2221020012359736,-2.1847855502834905,7.19098098205454
2023-12-07 15:02:46.149148,1.6996497649437223,-2.203587614138425,-1.2667985055736832,6.811366833691581
2023-12-07 15:02:46.153149,2.116588489682175,-2.903483809577824,-2.767268435827786,3.823452817470809
2023-12-07 15:02:46.155142,10.150396888021907,-3.171714661765692,-3.2432375691314546,3.382718815329955
2023-12-07 15:02:46.158142,16.725932813975547,-1.417650799679721,-0.5126877126198064,8.099093703267647
2023-12-07 15:02:46.161144,12.811260030091685,-0.7764964040831489,-0.8789067238678672,8.062550394304392
2023-12-07 15:02:46.163143,4.382054534440411,-1.8914014578223644,-3.747935522333448,3.468034083799291
2023-12-07 15:02:46.165174,-1.4368814122100038,-2.3136856721475354,-3.5198043373984147,3.916567311989699
2023-12-07 15:02:46.168237,1.5518969986166518,-2.3355223310618016,-2.0050327010076723,6.380927737796849
2023-12-07 15:02:46.170259,8.045871497235046,-1.9927809191450223,-0.4079356424031177,6.88970654352454
2023-12-07 15:02:46.172275,2.3839881110967243,-0.7993632878477327,1.5286673878475874,7.712743130155946
2023-12-07 15:02:46.174696,-7.796823395177547,-0.1878942752209747,-0.0849168335266497,6.254931385095286
2023-12-07 15:02:46.205616,-7.004008799316651,0.2663918867979366,-1.9031637063814009,3.0597882235185265
2023-12-07 15:02:46.212611,-0.1028705253806164,1.085080564463318,0.3294580686553667,4.226237676724631
2023-12-07 15:02:46.212611,6.0639000362440845,0.1862220574732549,0.9945531250660028,6.579603885056038
2023-12-07 15:02:46.214125,7.287755988488041,-1.5400579751898966,-0.7685065452703758,3.306136943025504
2023-12-07 15:02:46.219135,0.5402247353427478,-1.6142603821424917,-1.1486742695274026,0.0601209268761809
2023-12-07 15:02:46.220138,-4.886540288662058,-0.7627788314677063,-1.0501650668829143,2.1646203717365187
2023-12-07 15:02:46.223129,-1.4382292922120343,-0.4049970872209792,-0.77349659017447,3.713638428449008
2023-12-07 15:02:46.224133,4.903797871499008,-0.91155391668451,-0.2717405696166708,3.508828353634042
2023-12-07 15:02:46.226137,5.793044463432354,-1.292147349542515,-0.1798645315157855,4.104762399149769
2023-12-07 15:02:46.230171,0.6114060821555872,-0.7061828808800746,0.4607823156011487,2.946899125490936
2023-12-07 15:02:46.232188,-2.838451503617839,-0.3429134277833511,0.7698160711214677,1.247829918492119
2023-12-07 15:02:46.234204,-0.9237142836837156,-0.7089913673543784,-0.4369028099816233,2.173886456089391
2023-12-07 15:02:46.241219,1.8063888261050405,-1.129730722225146,-1.321088736826375,3.6002635242027794
2023-12-07 15:02:46.241219,2.3744738522774287,-1.0876778140972965,-0.7749407768194715,3.4716275066587574
2023-12-07 15:02:46.241219,-0.080369144964901,-0.5496012091464829,-0.5088297839523823,2.76414235415935
2023-12-07 15:02:46.242224,-3.178042001446426,-0.4281995379302578,-1.3425373575668078,2.43357950918579
2023-12-07 15:02:46.248269,-2.2235517334729096,-0.3473299971685233,-1.1292638663694698,2.724711293934617
2023-12-07 15:02:46.250552,1.4117844046629962,0.4835208727249797,0.883660314078541,3.593518676809461
2023-12-07 15:02:46.252562,2.360590544025284,0.8523228150858584,2.105017796245297,4.110849351827595
2023-12-07 15:02:46.255560,-0.5572672946381911,0.342109768341646,1.490005370196796,3.4342843504095497
2023-12-07 15:02:46.258573,-2.712572963721075,-0.0905534696550302,0.6529609022776672,1.7516038166072196
2023-12-07 15:02:46.261574,-0.9134414706596256,-0.2464674226710728,0.3549386798929239,0.4788501365920189
2023-12-07 15:02:46.263575,1.6964928438062687,-0.3916370742017109,0.2976860447330806,1.4059946344227552
2023-12-07 15:02:46.264574,1.9439290929473128,-0.3853322517286622,0.682609184285644,2.938608031387321
2023-12-07 15:02:46.271575,0.2562146024268691,-0.0532480975612464,1.3321098591226592,1.9262729038385205
2023-12-07 15:02:46.271575,-1.8337804763522367,0.036279418668474,1.2333376756743175,-0.3913269676259863
2023-12-07 15:02:46.273576,-1.898673168087273,-0.1566226312173894,0.2921793644162293,-0.9935678186522908
2023-12-07 15:02:46.282841,0.8421298853906193,0.0595844852941958,-0.3496787779345697,0.3903123091327491
2023-12-07 15:02:46.282841,-0.0490404606182638,1.6174168906081452,4.063402824057624,-1.738138518766723
2023-12-07 15:02:46.283849,-2.631504620451464,1.9337725690678256,5.847914913719642,-1.8073530676108995
2023-12-07 15:02:46.287884,-5.860609601115843,0.4411482641135278,1.835752206706324,0.3164826407680581
2023-12-07 15:02:46.289883,-11.254635588323634,1.3258486523655952,2.6029657381748,0.6729875120097791
2023-12-07 15:02:46.293883,1.6561688494100502,2.923549868539407,10.41708776945294,-4.100946608518364
2023-12-07 15:02:46.295887,9.54984219264974,3.1164599935194324,13.476990605412816,-6.236114895487972
2023-12-07 15:02:46.297885,-6.904023070496371,2.9078884858856626,7.208534800847401,-1.8973005511559229
2023-12-07 15:02:46.300888,-0.6400859043479699,0.172901627114186,1.3041775217136322,-0.5319854829143129
2023-12-07 15:02:46.337038,8.899092234804648,-1.6517536965484754,2.96028064468534,-1.5556458857948587
2023-12-07 15:02:46.337038,-0.8462948810879639,1.0576124675797272,8.963928364566529,-2.253996848204975
2023-12-07 15:02:46.341072,8.422844792854697,3.534384128324663,15.438904275303006,-6.486196576586786
2023-12-07 15:02:46.343139,8.5257583998562,3.17654359147849,13.390619648668386,-5.941083129976
2023-12-07 15:02:46.345797,-2.94952751394484,0.003903501127958,-0.1946126395126146,0.1798130480210252
2023-12-07 15:02:46.348849,5.127163830764628,-2.258565921749629,-5.990732503143256,0.8283390934911016
2023-12-07 15:02:46.351878,6.034696315246937,-0.0498647496452141,1.780384787970003,-1.7958705563210515
2023-12-07 15:02:46.353912,4.155367638436041,2.434344412592828,9.089232613234858,-3.917743871281828
2023-12-07 15:02:46.355930,4.398088102341568,1.6135712009630163,8.009592021896152,-3.315837546944092
2023-12-07 15:02:46.359107,-0.5470347614252231,-2.119202565471697,-1.5599744463420335,1.0787795106616314
2023-12-07 15:02:46.362144,4.603407034744533,-2.6810981895504247,-3.398347426920759,0.7085157267387374
2023-12-07 15:02:46.364421,6.678101657199638,2.157875813051187,6.799169767912025,-3.82363066166728
2023-12-07 15:02:46.368486,7.98641180465653,5.049173405243358,12.181922474596757,-6.368492489165785
2023-12-07 15:02:46.369515,8.994802758745159,6.162837406015679,12.150983541840953,-7.128169419896876
2023-12-07 15:02:46.371531,-7.253873002123703,6.219463284370591,6.90154586011057,-3.7341285263771504
2023-12-07 15:02:46.374055,-13.82804308647579,3.5888365746953337,-0.5655054787911717,-0.3031699068609871
2023-12-07 15:02:46.379382,4.618972220952655,1.1435484508792944,-0.7730594338938946,-1.9395703259681656
2023-12-07 15:02:46.384980,25.89316451663844,-1.602754430018325,0.4776170271343785,-3.826184692451021
2023-12-07 15:02:46.384980,21.690506346250743,-0.3719048544591737,4.732438576898937,-4.1203194841742965
2023-12-07 15:02:46.387006,1.608846015124643,2.603457514181013,4.6101511994555135,-2.6218076181235364
2023-12-07 15:02:46.391126,3.5492720599466616,-0.120884685268525,-7.333113409424006,-0.5080493791142671
2023-12-07 15:02:46.393448,7.06032438016953,1.043790441253528,-6.649456161423731,-1.7915739843868088
2023-12-07 15:02:46.395473,6.137955921455486,3.8488734198617807,2.354373769560231,-3.681790129544965
2023-12-07 15:02:46.399024,19.55082201552658,0.769335709406134,2.511262527190908,-3.8350219630374025
2023-12-07 15:02:46.406053,8.862540459630006,1.7487316412130016,2.910628938368024,-2.9023596044649707
2023-12-07 15:02:46.406053,-10.728542206121624,2.4284209930068648,-0.5680563933418087,-0.3482371602410306
2023-12-07 15:02:46.408422,5.525168811895989,-1.4204505057398564,-2.9218047083820906,-0.3678147821980191
2023-12-07 15:02:46.413473,16.79113307689727,0.5312931775343256,2.3528820703153146,-3.037863418336635
2023-12-07 15:02:46.414477,0.6782326132419683,4.37121919783272,1.0863809479660145,-2.790934008352343
2023-12-07 15:02:46.417546,-8.268798439417624,4.201615509537215,-2.120398047324737,-1.569161142900588
2023-12-07 15:02:46.421734,-10.79585609478358,4.108086266429308,-2.804110707374316,-1.4118253986822598
2023-12-07 15:02:46.425053,-16.30604137449229,4.905307698153183,-2.509488532807956,-1.137355785409118
2023-12-07 15:02:46.427162,-1.0197270305443225,4.20475278974562,4.416999183020764,-2.414716919933424
2023-12-07 15:02:46.430200,14.171837342257348,3.477840414189243,9.849729258195058,-3.5690282426587623
2023-12-07 15:02:46.433346,-2.013475827130404,5.782362927669672,9.647988511461502,-2.8636403589878703
2023-12-07 15:02:46.435673,-12.29527351674272,5.519994484021118,3.0633434495368417,-1.9582703982944256
2023-12-07 15:02:46.471452,-4.709647744463814,2.3371126893217795,-6.702241414950389,-1.5995400886418385
2023-12-07 15:02:46.471452,3.981406374603718,4.905104256279558,-3.3331958456436555,-3.542929106976923
2023-12-07 15:02:46.473458,19.225596235064973,5.837652260156768,1.911941779230588,-5.112652841126944
2023-12-07 15:02:46.476466,16.164537472912926,0.0326866515460912,-3.198580511839596,-2.0867643670488043
2023-12-07 15:02:46.480746,-8.509582295094992,-0.5825053318093129,-2.813623591922633,0.5037610438632296
2023-12-07 15:02:46.484975,-8.754481447637078,2.9032393222462747,-0.7290000319883833,-1.1702292694906782
2023-12-07 15:02:46.486984,9.99910799546069,2.1799163356414057,-2.717830276402438,-2.473883367142406
2023-12-07 15:02:46.494084,11.273104606409394,0.9323319421587046,0.2750083255960237,-1.4187392448239848
2023-12-07 15:02:46.494084,4.541769061463577,2.022981836775339,0.9746281733980692,-1.3636390821504034
2023-12-07 15:02:46.496144,-1.9202705297441,2.760140404945452,-2.291351825399868,-1.7752961056795058
2023-12-07 15:02:46.498274,-10.982123690726832,1.7100562045291972,-0.2859418560022227,-0.326626539436975
2023-12-07 15:02:46.504350,-4.558338440120481,-1.0512561172585864,4.370858194509267,1.439040034498475
2023-12-07 15:02:46.510071,8.582922983554628,-3.602690721091037,7.436375698933364,2.6025106877631163
2023-12-07 15:02:46.511111,12.004519892797708,-3.1586534148612104,5.402980978996511,1.9330546790514327
2023-12-07 15:02:46.512116,1.02916600185182,-1.326432926632333,-1.179528461483733,0.2984829246652301
2023-12-07 15:02:46.516530,-22.5326760223321,0.0279492278743696,-4.774691324132411,0.1022183974097971
2023-12-07 15:02:46.519716,-12.092479336638393,1.5895380042846643,-3.607943580582493,-0.9826401779180276
2023-12-07 15:02:46.522918,14.09717477938172,0.2939612228911198,0.4367331765642017,-0.660308244888086
2023-12-07 15:02:46.525126,-4.866579369306355,-2.040661293741318,0.9278606931680004,1.542238425645813
2023-12-07 15:02:46.528287,-18.34502344500097,-1.0862094929073325,-5.222567663785128,-0.0060267948433015
2023-12-07 15:02:46.530316,-4.726919890706263,0.2052329534075369,-7.226497750777883,-1.9336888578817253
2023-12-07 15:02:46.533333,1.4040377113057283,2.8252419388806027,-1.563951199543263,-2.0292193345255294
2023-12-07 15:02:46.536516,17.820019218475775,4.221180309673265,3.780595327695603,-1.667049810906334
2023-12-07 15:02:46.539551,17.40246999444114,1.3428965876093233,2.367173045756033,-0.4305426723011749
2023-12-07 15:02:46.595844,-15.685070994195035,2.948151588523146,-2.5869613022386,-1.7854011307906126
2023-12-07 15:02:46.596871,-22.580812913217333,4.091844776301846,-4.604894234497313,-2.9955864308721423
2023-12-07 15:02:46.597881,-0.392507425272377,-3.018676845500259,-8.16710876525722,-1.1291804206093787
2023-12-07 15:02:46.600195,17.817839399979714,-7.981658803395597,-5.075959517432082,2.0664722639365776
2023-12-07 15:02:46.605333,19.46340161408072,-7.898208892562556,7.104525220140043,6.03916934122988
2023-12-07 15:02:46.608753,-0.4819484725125642,-5.99782235816424,1.967378144570607,3.527766374126447
2023-12-07 15:02:46.611794,-21.16340719143913,-2.6435681546208887,-11.784459350398068,-2.8643571085902035
2023-12-07 15:02:46.615645,-21.95768080311608,-1.1190522933119775,-8.645339933676802,-2.599756032775288
2023-12-07 15:02:46.617655,-4.937734913811213,0.3356113183425157,-0.8426410418477438,-0.4124730476367864
2023-12-07 15:02:46.625384,9.924865734961797,0.9840339870376814,1.296022595584773,0.2082377883215111
2023-12-07 15:02:46.626404,-0.1400825157382088,-1.1042054378107855,-2.0681915746751627,-0.2005604745649774
2023-12-07 15:02:46.627414,-17.1439715026029,-1.083328762857,-10.103590436984597,-3.66543427204741
2023-12-07 15:02:46.637161,-5.850627113091298,0.4748612876720928,-12.253998047674724,-5.157645294818297
2023-12-07 15:02:46.637161,14.654468666051764,5.13828125456065,-3.295983196920694,-3.337118299512506
2023-12-07 15:02:46.638183,10.443284001359798,10.407089693393214,4.604868585085106,-2.615228490730381
2023-12-07 15:02:46.641570,-2.524691843086508,4.020569338965172,-4.22661789806584,-3.6219626039392274
2023-12-07 15:02:46.646992,-11.62090573825822,-3.332134815250101,-15.198333398785156,-5.246775139086478
2023-12-07 15:02:46.650140,-8.556222544697539,0.4668219686691859,-7.994966183807007,-4.011048647228374
2023-12-07 15:02:46.653579,15.125538841306229,4.5662537975125295,2.8052439575995,-0.347275887105231
2023-12-07 15:02:46.656628,14.87342993138901,6.958876902688727,3.3182749994157046,-1.0695979103826354
2023-12-07 15:02:46.657704,-8.672929230272782,7.95553886796048,-2.041854093843129,-4.891243615247538
2023-12-07 15:02:46.659723,-13.076006027759435,4.990342563765674,-6.3804114429985965,-5.8728999841191785
2023-12-07 15:02:46.665821,-10.217616733563606,3.353234457065779,-7.3967805092445085,-5.554684969394499
2023-12-07 15:02:46.669085,7.696818535365987,0.3321860819854814,-6.716231030565704,-2.9836289607203232
2023-12-07 15:02:46.672463,29.21026717533392,-3.8916141493526974,0.6625472746382617,3.5704746987144698
2023-12-07 15:02:46.675550,15.154388309982044,-2.166961964174498,5.873703796499063,4.579135333309213
2023-12-07 15:02:46.677578,-1.728252175518768,3.825887680253938,-4.178494633495988,-3.987509596937505
2023-12-07 15:02:46.681612,0.2524400938251414,10.100240167297205,-10.610222147287663,-9.847282451651552
2023-12-07 15:02:46.684769,9.392027724643544,10.588083043375146,-3.678025066254246,-5.978373748322583
2023-12-07 15:02:46.688119,19.49892633688131,2.5217308533188425,-0.766503991210381,-0.2739159662607325
2023-12-07 15:02:46.691254,14.704612163747996,-6.9681244105345685,-1.6115404403730125,3.1035381076663984
2023-12-07 15:02:46.693317,3.3686146212337182,-10.97134043155458,1.419739226861755,5.543638858957181
2023-12-07 15:02:46.697414,-2.6621366069812944,-6.101783320063143,-0.404235088326156,1.987183728354587
2023-12-07 15:02:46.700562,6.231061446718438,3.816289085906522,-5.351998697183044,-4.201082539286745
2023-12-07 15:02:46.702592,25.39679963865032,10.742657977976291,-1.2966925921423176,-3.4732294103070247
2023-12-07 15:02:46.711553,19.075787550104707,7.923968010261501,1.7055003871083114,-1.0669227573560345
2023-12-07 15:02:46.716894,4.5788501387722125,-4.823079396609228,-4.526678755881773,-0.1983472013682264
2023-12-07 15:02:46.716894,11.449224037594082,-12.1862375413321,-5.193879496281977,3.0003817843296026
2023-12-07 15:02:46.719041,19.4042993511012,-7.626082301843531,0.7789780300769658,5.029311746712953
2023-12-07 15:02:46.723261,19.21625717875588,-2.9881499307508443,5.870311098728684,5.993668077607195
2023-12-07 15:02:46.726262,15.562265707333948,-0.5904192812442423,7.282424311864784,5.497607026916734
2023-12-07 15:02:46.730482,6.3896989929861645,4.360031363040828,0.3294568760958515,-1.2885729701168225
2023-12-07 15:02:46.733877,-12.023741593756265,8.42713777630356,-0.3932648547184199,-5.030680460963971
2023-12-07 15:02:46.736964,-12.611984034516968,4.024378346424852,6.3247808517478985,0.5786501246882881
2023-12-07 15:02:46.740540,17.0542265178653,-6.058537483477339,2.947869999079696,5.597617713886019
2023-12-07 15:02:46.743619,22.034077994411525,-11.346902397325426,4.727120536227419,9.296603815557145
2023-12-07 15:02:46.746080,0.8589052340199431,-10.358554042591877,13.318915476835867,11.836469835203484
2023-12-07 15:02:46.748852,-12.525917725054574,-3.676310143578214,9.70275279987412,5.703454751201892
2023-12-07 15:02:46.758227,-20.65038003643072,2.164599374508936,5.447881346603337,0.062359086565675
2023-12-07 15:02:46.759524,-5.829330076839463,-1.892790341820268,4.547915276510532,2.686267081083724
2023-12-07 15:02:46.760676,6.660980839134963,-5.456730525268395,-1.1232791123822967,2.093666748928998
2023-12-07 15:02:46.762686,-5.727416229252548,-4.929423938272995,-7.934367004271589,-3.340642124796533
2023-12-07 15:02:46.768937,-2.582038158079463,-7.434758319919153,-13.420652618043446,-5.272321458077222
2023-12-07 15:02:46.775263,1.813347199537173,-6.892581317415067,-11.22886349780184,-3.7895188126139367
2023-12-07 15:02:46.777446,-3.6102244249545374,-6.902240641518093,-4.181257649287094,-0.1489263046958306
2023-12-07 15:02:46.779539,0.553613212034952,-12.0164205451033,-1.68700443117695,3.836139059392184
2023-12-07 15:02:46.783579,-9.547050232607898,-9.950511005436468,-1.382366987449236,2.109552606380793
2023-12-07 15:02:46.787700,-29.24379636438476,-3.394289359184315,-2.998706636342889,-3.559627349239645
2023-12-07 15:02:46.790880,-27.50128326774005,-6.299087868074737,-2.2199491328563665,-1.7324127229354933
2023-12-07 15:02:46.792984,-6.13434754782148,-13.89204211872844,5.863231254732784,8.384106892162848
2023-12-07 15:02:46.802407,8.281304813809918,-12.189215619445388,10.34121275033729,14.522503965380928
2023-12-07 15:02:46.810043,-11.450319104895978,-1.887093261524732,3.860506800199516,3.8252951565745255
2023-12-07 15:02:46.811086,-32.019356084319206,-1.675038906300392,-6.919501365310519,-7.82157681700918
2023-12-07 15:02:46.811086,-20.65482478600139,-3.790785878464638,-14.141496556510807,-11.319769923328607
2023-12-07 15:02:46.813094,3.761371819680704,4.664971162305648,-12.123959872574025,-8.39271990913115
2023-12-07 15:02:46.818835,20.33107450147728,5.908767552154094,-1.7470696125931682,1.457337213293413
2023-12-07 15:02:46.823312,22.343935894770624,-9.94946549090825,2.3008909553754395,8.20522068820264
2023-12-07 15:02:46.827608,5.582650080166947,-19.794943205493865,-4.849429981017757,2.835191852458565
2023-12-07 15:02:46.830976,-8.217088765169914,-13.727679859453524,-5.130198321321602,0.1098684544881085
2023-12-07 15:02:46.834139,17.006099578656602,-8.238522804006262,1.6155506927653136,7.14940091767213
2023-12-07 15:02:46.837262,40.37586405923602,-3.6187754314925993,1.7530786970302488,7.963160523341274
2023-12-07 15:02:46.845501,3.780612223641096,2.916134889713496,-2.4532792078397447,-1.4595903896089488
2023-12-07 15:02:46.852403,-35.073292560574934,-2.8709040960141783,-7.191251973490539,-7.089436285005028
2023-12-07 15:02:46.852403,-28.92177820148468,-13.249138101694136,-5.995941873746987,-2.2175279437301505
2023-12-07 15:02:46.856854,-13.699451206385568,-12.18945794178808,2.217276245245699,5.247074050368982
2023-12-07 15:02:46.860457,-2.310849665127955,-6.4958617226369935,3.695738202865828,6.018577588054176
2023-12-07 15:02:46.864888,-2.0003820789467506,-2.180198928112414,-1.8400382859005373,0.6189374255684255
2023-12-07 15:02:46.869320,-17.635900457109056,0.0692726624011022,-3.4925347907569115,-3.559998608572519
2023-12-07 15:02:46.875647,-22.97606605747787,-2.7003808059089653,-1.3133779891236457,-2.062614898615194
2023-12-07 15:02:46.878770,-11.657249887542822,-8.475092472162745,-0.0146067774168248,3.1830092984301244
2023-12-07 15:02:46.880781,0.0436020958623104,-10.003646827415686,3.818047488797467,9.465641317010192
2023-12-07 15:02:46.886428,-3.9577038147528136,-5.347108820665872,9.926276919113665,11.987314180579778
2023-12-07 15:02:46.890436,-16.725973414021087,-1.6098690735072454,7.80411646651108,5.985597300689372
2023-12-07 15:02:46.893666,-11.07393464316857,-0.0661556000326101,1.7948298720259144,-0.4606970191817221
2023-12-07 15:02:46.895685,4.079145691095812,1.829957715157156,0.8457928249615364,0.2935149152011258
2023-12-07 15:02:46.900748,7.111360187217226,3.1674335407112912,0.2529744247087216,2.5729393563771152
2023-12-07 15:02:46.905111,1.94587464471924,5.373045596220166,2.8763313942002,3.5111404881681856
2023-12-07 15:02:46.914855,-13.165163564767989,4.583848063207147,8.601308313856363,3.213505490777633
2023-12-07 15:02:46.914855,-28.70468577135541,-2.858541306789636,7.088652589717416,1.323122944689472
2023-12-07 15:02:46.914855,-14.339210976914282,-8.117670889222387,1.626254395985906,2.2311954546943062
2023-12-07 15:02:46.920150,16.236626356691872,-5.141569373127408,0.9924576082269454,5.803020401126762
2023-12-07 15:02:46.926599,14.98634169486406,-0.1116596759832583,6.403294655810338,7.813082920166064
2023-12-07 15:02:46.930119,-15.75957051248118,3.5564331293518125,7.59440039404992,2.8332719010273
2023-12-07 15:02:46.931150,-35.23467460520608,10.0556445980334,-2.861938470879568,-8.603034715468434
2023-12-07 15:02:46.935706,-26.1625614546092,13.747690638854207,-6.173400690138505,-8.733738834627502
2023-12-07 15:02:46.940156,-4.653164137720905,6.399782065184529,3.5951120193409185,4.267250469218815
2023-12-07 15:02:46.948762,-1.0875612959199377,0.1173462391553271,6.92544997271416,8.61562682511185
2023-12-07 15:02:46.948762,-11.327761112999523,4.064220815112061,4.0180859686646,2.042554210231829
2023-12-07 15:02:46.950793,-12.2292095353008,4.638637967211161,1.9047738854254737,-2.8129734839914025
2023-12-07 15:02:46.955976,-5.3350031907533815,-2.8928130305533832,0.8100077646094821,-0.9666645917650803
2023-12-07 15:02:46.961547,14.23951993501867,-3.8373871226790897,4.309734038896674,4.7801970633971775
2023-12-07 15:02:46.964044,27.853522756151825,4.023406727009145,8.132443339634632,7.000709272706617
2023-12-07 15:02:46.967136,5.748932661695783,5.605985301236686,8.447076636511097,3.909664577633881
2023-12-07 15:02:46.972204,-16.133809564585953,-0.8839787171402846,6.120388447837094,-0.3297142724518257
2023-12-07 15:02:46.973210,-9.762178659006995,-3.096291703905354,2.3735626998751367,-0.4418897166143025
2023-12-07 15:02:46.977709,7.667684983894821,-0.6030419453368395,1.0732954258401788,3.3486633222173414
2023-12-07 15:02:46.983427,18.07352214970188,2.623496160368321,1.400510465401252,4.16412440690144
2023-12-07 15:02:46.987723,4.587950813094499,8.474454292785854,2.661308681751023,1.6760453075681094
2023-12-07 15:02:46.997048,-18.04443553486843,9.217901956560745,3.7999418159742304,-1.4830989342771284
2023-12-07 15:02:46.997048,-24.152461482384258,2.425664844066352,0.6439737558490625,-4.14857632738681
2023-12-07 15:02:46.998062,-7.461604014235285,1.2537908336673338,-3.926814353265514,-4.106605290911926
2023-12-07 15:02:46.998062,18.045630152355017,3.5739664307167383,-5.5370522589372735,-2.9175532271139035
2023-12-07 15:02:47.000263,8.412629089500864,0.0788867679153718,-3.629230466816381,-3.400909494961612
2023-12-07 15:02:47.018229,-27.632488828612,-3.565723683050124,2.080687226470552,-5.576797012052812
2023-12-07 15:02:47.019233,-33.30028718044842,-6.699054831990604,9.790982127326098,-1.5191653553557662
2023-12-07 15:02:47.020447,-11.045783777493098,-11.549213243782482,12.233283412234783,9.498131856442027
2023-12-07 15:02:47.026245,6.4575903540851725,-9.37847251030401,5.150667330056473,9.825379218841404
2023-12-07 15:02:47.032612,4.371768342096202,-0.0761445462531609,-3.6038188763870025,-3.1164936356895865
2023-12-07 15:02:47.035827,-12.492726225934645,3.813907180340007,-7.997309425272733,-14.297603611548244
2023-12-07 15:02:47.040269,-19.329106956109737,-2.0766561597868174,-4.3116040039864485,-13.506908803535593
2023-12-07 15:02:47.049028,-6.198679528451208,-9.842786375304136,7.69133900033228,1.0984020583573415
2023-12-07 15:02:47.049028,12.33064481257882,-11.560460889489187,12.609085291357951,14.701210227984944
2023-12-07 15:02:47.051043,15.394814964343093,-6.740391798331916,8.824248855781697,13.204951750289574
2023-12-07 15:02:47.055044,-5.93744918171094,-2.1563074183693343,6.7894760819273845,1.2846705841428487
2023-12-07 15:02:47.060530,-25.52330386912884,-4.220229449652865,0.4228760471566213,-8.732174385021551
2023-12-07 15:02:47.065766,-10.39957677797572,-6.3313768668746455,-6.583198765610641,-5.853295836848194
2023-12-07 15:02:47.071119,20.06526538631785,-2.000220030947596,-5.516768097406999,8.631552349630958
2023-12-07 15:02:47.075173,22.275168343601305,-0.3495374905248363,-3.830633030073295,16.469291444105213
2023-12-07 15:02:47.078592,-3.5281043059182084,-2.266232888958497,-0.8122927436444362,3.398771876749544
2023-12-07 15:02:47.081848,-24.48678497028321,-2.884760621032997,4.6295290059519205,-10.511246638190345
2023-12-07 15:02:47.085193,-13.890746836693134,-7.287466835415046,4.483956938556749,-0.415327062683837
2023-12-07 15:02:47.088331,18.67608170512281,-6.654299061772766,2.1634513754948004,14.900263482854433
2023-12-07 15:02:47.097799,29.012195961611976,3.982284570638865,0.2601699168038764,11.39354963189233
2023-12-07 15:02:47.098810,4.401802144723527,9.909411847241923,-4.630094412619985,-6.201495567241398
2023-12-07 15:02:47.100890,-13.837886622141175,11.759681982839655,-6.158629319776432,-15.64205012229463
2023-12-07 15:02:47.107214,-0.0217279736013429,11.882642305808648,-0.9719851211379592,-0.6616052587616659
2023-12-07 15:02:47.112314,15.383296567255837,3.7812114750448185,3.95710824716164,11.53078084325831
2023-12-07 15:02:47.114835,11.709087215090038,-6.389188475576597,3.516474266909413,1.7445829789570129
2023-12-07 15:02:47.118951,1.4755718412315393,-10.248414331723431,0.4270068528217949,-4.333244965798846
2023-12-07 15:02:47.129103,-16.822104721651336,-2.635839453668496,1.6718450541533534,-8.180836109062362
2023-12-07 15:02:47.129103,-21.6253129001462,6.500346719429459,3.11216501091816,-17.43907456601276
2023-12-07 15:02:47.129103,9.18490920489158,1.69776938635535,0.4862519171360371,-6.353655408213599
2023-12-07 15:02:47.135260,29.0660381751754,-1.5742738494917128,4.799970939136605,15.82106948240972
2023-12-07 15:02:47.140479,4.707903277864173,4.553670562830458,9.421343873070072,9.347542016659974
2023-12-07 15:02:47.144516,-28.93682252342618,6.124448846659655,2.1191676164916022,-14.851506982019725
2023-12-07 15:02:47.149738,-21.70875876580121,9.72043298180081,-0.5673465080526452,-11.260384932871933
2023-12-07 15:02:47.152858,21.59557079460556,16.00070238884529,2.8553464844456657,11.660318748543247
2023-12-07 15:02:47.157405,38.85786018616311,10.651120924061956,1.6621716389522234,14.403656669423382
2023-12-07 15:02:47.159417,16.582924791512948,0.6284369119115437,6.528749833351902,1.2241873476807723
2023-12-07 15:02:47.161510,-5.686199658319718,1.5508801716924543,8.789737456626991,-13.842558793791833
2023-12-07 15:02:47.166872,-4.125393653704579,11.144434166112196,-1.6299834272109175,-19.465373959807835
2023-12-07 15:02:47.175739,23.45347130842635,12.071370317175088,-0.8268584413601385,-2.3804900768929724
2023-12-07 15:02:47.176744,36.161827841064,3.4402223830577308,10.055743128199016,9.795829256175187
2023-12-07 15:02:47.180275,5.974595175825133,0.9891251341860172,6.15015419192033,-2.3455605900250416
2023-12-07 15:02:47.186363,-24.663045552385675,-1.1593475763401866,0.4908285565906619,-12.113629002953118
2023-12-07 15:02:47.189557,-19.32249221018889,-8.791640559731245,9.59185659119946,-6.356521306316358
2023-12-07 15:02:47.199047,11.622123240605353,-8.473407178248332,13.82291501243101,1.2272993830215446
2023-12-07 15:02:47.199047,28.20148567604106,-0.6617974397449577,7.046553494627986,1.4304286696078132
2023-12-07 15:02:47.201060,8.805793878717694,5.963219808116699,1.1685586495184654,-4.8918024235005
2023-12-07 15:02:47.206551,-14.77919897049128,7.702115904288885,-6.467275565185151,-12.08260085860076
2023-12-07 15:02:47.211138,-21.373546562930034,3.839588146326208,-7.058128572850692,-11.2937481573614
2023-12-07 15:02:47.217306,-14.558652214639707,0.1016155273306517,2.057158011011803,-8.855596344164642
2023-12-07 15:02:47.219409,3.246924615374038,-3.6180808532107287,1.731004099772426,-11.809646273076869
2023-12-07 15:02:47.223447,8.34198721088668,-6.671921413632141,-0.1129856080212498,-5.981067641859141
2023-12-07 15:02:47.226947,-9.383435046700749,-5.70896816689621,4.6188525008517045,-0.6307806370115419
2023-12-07 15:02:47.237774,-18.83529515645149,-4.985036205269124,1.84306273430022,-8.837466461916948
2023-12-07 15:02:47.237774,1.162189214088829,-2.076951037182417,-5.360130488407518,-10.32926248752647
2023-12-07 15:02:47.237774,24.86010660583869,3.049418545513657,-8.86272327274921,-3.986908779513697
2023-12-07 15:02:47.251221,14.065861815365777,4.915231396087118,-5.560370136483365,-4.988859457229601
2023-12-07 15:02:47.251221,-21.542722577483904,5.994715603242141,2.5383615783187725,-14.82129115166791
2023-12-07 15:02:47.253428,-37.92503604040988,2.0482825473300004,3.317022439945083,-23.69103472722342
2023-12-07 15:02:47.257528,-13.486894366217044,-7.678678796325174,-0.0836270389713345,-15.119273624137136
2023-12-07 15:02:47.265101,22.316118528078142,-9.37394074482916,0.7623513302771892,3.098762186500928
2023-12-07 15:02:47.269576,21.855114418813955,-0.7237916840408575,0.817462124815103,5.880329556212842
2023-12-07 15:02:47.273051,-4.453364039253377,6.822024936037147,-1.5613553324330005,-9.159615449902075
2023-12-07 15:02:47.277486,-15.174088572411792,8.443898321326659,-2.956407468214179,-16.840154706047418
2023-12-07 15:02:47.279796,-7.90095400056725,5.239521345732148,-1.1275008753024809,-6.5728026664475365
2023-12-07 15:02:47.286256,7.819326306384471,-1.7694332254879124,3.643663044043911,-2.299204043286855
2023-12-07 15:02:47.289838,19.03123743469098,-2.5786856339367987,5.602889217847333,-8.334048950148633
2023-12-07 15:02:47.291904,1.185159719816693,5.964324037600066,2.194086162240344,-12.420523300165891
2023-12-07 15:02:47.303558,-29.9170881295009,9.21601509430072,-1.4911798762517277,-17.76245290319823
2023-12-07 15:02:47.303558,-26.07898732494128,5.650438702957171,-6.023455810844275,-19.43048895872125
2023-12-07 15:02:47.304636,11.713675945564678,3.205525264826754,-10.153454590056697,-12.263031118555476
2023-12-07 15:02:47.308695,26.77116169166467,2.367664704135581,-4.794851867885442,-1.339848397606378
2023-12-07 15:02:47.315713,-8.521218692439378,0.9946254462574536,-0.2731267582057603,-3.871759863701049
2023-12-07 15:02:47.319903,-44.59465991320724,-3.72660315989958,-4.98822318686782,-26.952657240447163
2023-12-07 15:02:47.324008,-28.862812368227672,-2.7798689937956285,-1.85853800992876,-31.17372610695797
2023-12-07 15:02:47.332193,7.111444105975628,3.547694045369886,5.933391872902342,-3.7914092788224014
2023-12-07 15:02:47.334208,15.249495460221071,3.704624766093092,0.9358446754692612,12.506537580913683
2023-12-07 15:02:47.335638,3.015696735183893,7.380531263972286,-5.198780098808896,4.299487564732968
2023-12-07 15:02:47.339809,-18.194116058496306,10.201047582176969,-0.7324878615710418,-10.32446426187195
2023-12-07 15:02:47.353305,-34.78828125810917,0.8435261441794326,3.2032901132961715,-22.60185128136177
2023-12-07 15:02:47.359094,-12.92506665644607,-3.2837118686664,3.764868165788548,-12.40862025310376
2023-12-07 15:02:47.359094,18.806949583014905,1.13544501977634,5.194193876630714,15.536425874132446
2023-12-07 15:02:47.362114,4.666231547873895,-0.2847290591519035,4.1805887996807245,10.650728741120512
2023-12-07 15:02:47.366469,-31.52508490070471,-5.020379205101323,7.77582324546596,-20.445182421332905
2023-12-07 15:02:47.370987,-33.11320177894426,-2.27738564862216,9.85835530680621,-21.254583468815227
2023-12-07 15:02:47.376023,5.402518158604939,6.544376122537945,-1.1347848049953817,0.013830138418273
2023-12-07 15:02:47.378362,37.85417403184223,8.727809224234276,-3.992542624189907,13.07088915421418
2023-12-07 15:02:47.383894,26.101742232329904,4.027873751663977,-0.6329924006111567,13.93435769179046
2023-12-07 15:02:47.389347,-7.696192994821904,0.4183698560633235,-5.333399399030823,-0.59458243618228
2023-12-07 15:02:47.395212,-20.16742635705968,-2.130120849911126,-3.4534746566501986,-13.564576688561171
2023-12-07 15:02:47.396280,-3.0797934697964715,-3.074557196608433,-4.154297758006235,-9.26879637215754
2023-12-07 15:02:47.399613,20.3619780064882,-2.603871750644956,-8.76384122255222,2.820381190836
2023-12-07 15:02:47.413058,18.24546277464088,-2.833878333380604,0.0091193009597216,5.3526729876888455
2023-12-07 15:02:47.414568,-9.110569031867934,-3.832623819294728,4.783257260885596,-9.440739915396914
2023-12-07 15:02:47.417590,-20.75941188077808,-2.489906139297539,1.3741820181024136,-20.769535261466128
2023-12-07 15:02:47.422747,2.4630406089743246,3.196981288808283,-0.4509193422680591,-11.602002987199882
2023-12-07 15:02:47.426810,30.018776170039136,4.987581075102292,-4.900745974522433,6.73674532155717
2023-12-07 15:02:47.431003,24.3302653960888,0.3578204985607939,-1.4179670228594417,11.150228707048988
2023-12-07 15:02:47.440841,-14.310727308753329,-5.200301332624584,5.622521593622024,-8.179974681992526
2023-12-07 15:02:47.444283,-41.41014708862875,-9.80520732378155,1.0056390221721967,-21.54086747455036
2023-12-07 15:02:47.449688,-18.241692222606066,-5.775171257869208,-4.952366244305679,-6.141451556195319
2023-12-07 15:02:47.452705,21.915815083365445,1.890449247410012,-4.938364734886106,16.310873859393617
2023-12-07 15:02:47.457960,19.570951330960405,-0.2946219535449114,2.086113376796942,23.10931271503633
2023-12-07 15:02:47.463374,-9.906616018909864,-3.055775928776062,11.45213164390618,13.076070032903802
2023-12-07 15:02:47.466410,-25.11502296892608,-1.0518928052337575,7.499743978149643,-2.264417646269954
2023-12-07 15:02:47.478735,-18.48883421121874,2.0867014515872406,-2.8964650515153134,-9.04409731826898
2023-12-07 15:02:47.479802,9.682462295354702,8.742372360843449,-4.154609409379829,-1.2584230515097614
2023-12-07 15:02:47.480825,19.15115693663445,9.461113679118595,-0.0987677316213001,6.705430575291136
2023-12-07 15:02:47.483875,-15.586789117342445,3.9273747425070433,4.063463124563235,-7.225364634605818
2023-12-07 15:02:47.487226,-36.28486885845142,4.005008931558624,5.3282030691028215,-25.45990819448789
2023-12-07 15:02:47.492589,-13.681126224741291,3.145868805489265,1.3684307393581006,-12.792627635366834
2023-12-07 15:02:47.499130,20.87428239740808,1.1577237247748733,-3.238191408771605,16.863066097464802
2023-12-07 15:02:47.504173,32.99896207676647,7.6852103922891555,-4.131160055732718,21.106146536833126
2023-12-07 15:02:47.510641,3.6771300514938745,12.42851332881347,-2.429441545923536,-3.263986955668472
2023-12-07 15:02:47.514696,-29.534408096168963,9.144026812730951,-0.3637408266224931,-20.39115671523106
2023-12-07 15:02:47.520179,-21.830936976586163,7.93642030040509,3.1411790996984363,-14.199217475600577
2023-12-07 15:02:47.533453,10.032622801171703,6.896769633357459,5.620129948813999,1.94798912287254
2023-12-07 15:02:47.533453,24.79642514660916,1.1510792491934465,4.115592227695118,14.31852242098412
2023-12-07 15:02:47.534588,4.933917866525806,-0.3369926812080705,3.5340923332948604,11.600389260971182
2023-12-07 15:02:47.541182,-20.753851421513925,1.9719583983954143,3.631602944530078,-3.036094530425176
2023-12-07 15:02:47.543193,-13.94708549700434,0.2641456721882805,1.703913563376395,-10.154196267872427
2023-12-07 15:02:47.549398,18.81697180923828,1.0820021377217297,0.6499148143142954,-0.0087103541499772
2023-12-07 15:02:47.555617,35.734663049932415,2.952197355182324,-1.7937382217766649,12.655400082291331
2023-12-07 15:02:47.561131,15.499883735742372,-1.579045903048052,-3.570482685463545,3.3494234474638542
2023-12-07 15:02:47.563173,-11.127765043776568,-1.9514407958789808,1.4059691645265444,-18.51090508860168
2023-12-07 15:02:47.569487,-10.70987092694558,0.8820632787394962,2.5577587906233155,-24.3348676156372
2023-12-07 15:02:47.575640,13.638456469772152,-1.7694981819180842,-5.042005408435671,-12.458039088426895
2023-12-07 15:02:47.578678,27.56292786343063,-0.7393086807041992,-5.872101960851938,5.872783875672723
2023-12-07 15:02:47.591390,-1.8052417894543649,0.4274668317477766,-0.7873345738624268,9.844235842741323
2023-12-07 15:02:47.592656,-44.43806279894809,-5.267651538580007,-1.1819022943543918,-10.200288623646577
2023-12-07 15:02:47.592656,-48.64949231480514,-6.696708565245832,-2.095395567033325,-21.38011670418914
2023-12-07 15:02:47.608474,-20.95649099772658,-5.4044853042586665,-3.235936808772972,-7.424447718718009
2023-12-07 15:02:47.608474,1.3682719443057816,-6.806931105182175,-5.792720764584585,7.174531063898076
2023-12-07 15:02:47.609625,-1.2292420016887826,-5.000476488690179,-3.879756516485111,5.973524371392648
2023-12-07 15:02:47.614644,-18.372245862683613,-2.9848440836802648,-2.0600687359500056,-9.528185272242936
2023-12-07 15:02:47.620047,-25.789803731627305,-2.9751240635913283,-2.447084358897088,-20.558804428767388
2023-12-07 15:02:47.627257,-9.374117701170848,-1.9519141363154875,-3.397567816709452,-8.12643354849291
2023-12-07 15:02:47.634503,16.398074858482683,-3.397413674934143,-6.79869716126214,10.184776950438538
2023-12-07 15:02:47.639905,13.397622253193816,-5.301300312360012,-7.463908958794147,9.57655133982114
2023-12-07 15:02:47.641950,-15.736872594892027,-3.434690118770788,-3.814171294621553,-0.8261361083124606
2023-12-07 15:02:47.654106,-25.04087450459121,-1.239419522739096,-0.5126154695880936,-4.836220209016973
2023-12-07 15:02:47.654106,-8.983606203760056,-0.3421285078645028,-1.3406383270990063,-2.1873840102115283
2023-12-07 15:02:47.655455,5.222713056609795,-0.7758459032265271,-4.51450460961216,1.6055571991105524
2023-12-07 15:02:47.663854,6.098576226609421,-0.638149058724247,-1.2582331650500176,1.268470484514551
2023-12-07 15:02:47.667996,-10.48648423671278,2.5034757979495903,3.747508632113526,-3.1550059863159943
2023-12-07 15:02:47.673151,-24.92411606380835,2.846450652882294,1.4478730630684231,-6.386185352417146
2023-12-07 15:02:47.675193,-8.991350766273506,-0.096081237161549,-0.8049951630314374,-1.923146245857673
2023-12-07 15:02:47.679855,12.333883155495093,0.454853739246665,2.134968495218679,8.734442824989008
2023-12-07 15:02:47.684359,6.638870501667333,0.6159692422525118,4.089313058199662,10.748120114405417
2023-12-07 15:02:47.689413,-11.474707033781932,-2.109708940325133,0.8604964838690606,0.6676686217570064
2023-12-07 15:02:47.696464,-24.28792829471641,-2.2320773289350315,-3.0480438297813346,-9.085102915665985
2023-12-07 15:02:47.700484,-19.79827628984689,-1.844909790336581,-3.110198048926605,-10.844427759616767
2023-12-07 15:02:47.712373,2.641607193009434,-2.409456734132283,-0.6867722555351355,-1.5613447508170342
2023-12-07 15:02:47.713755,8.917230906810675,-1.413249733728231,1.3460562509407863,6.834592868239535
2023-12-07 15:02:47.714755,-11.286075806533006,-1.9722579466318373,-0.677748237081509,-0.8798757559407423
2023-12-07 15:02:47.718933,-26.38815819750302,-3.548975412453863,-3.3554204530702694,-10.383850940034025
2023-12-07 15:02:47.725078,-21.5659762042476,-3.3129132910216565,-2.068763758190319,-7.152208735336031
2023-12-07 15:02:47.739588,-3.360507781922175,-2.4871670166861697,-2.6810770266564594,0.8905402046552197
2023-12-07 15:02:47.739588,8.804815050624821,-0.59821317100186,-4.038085334708069,3.4473547774565363
2023-12-07 15:02:47.739588,-3.5509448261755434,0.2630212745231409,-0.3411362159099795,-4.060183980920463
2023-12-07 15:02:47.739588,-19.475158392515933,-1.8511217453950413,2.055852909162185,-10.443954651585384
2023-12-07 15:02:47.744171,-11.962843766956668,-2.7498363869570728,-0.7523022676215583,-6.308995946081172
2023-12-07 15:02:47.758266,4.982626298974955,-1.2492336994060218,-2.970717933307641,-0.9529619886490062
2023-12-07 15:02:47.764666,9.148949046213016,-0.039631537594541,-1.7730896558766578,2.907252733773155
2023-12-07 15:02:47.767670,0.6057076358475457,0.5010248955808644,-0.2888893081248634,3.0049260060405407
2023-12-07 15:02:47.772812,-8.905611576785855,1.051212520203579,0.5740542904973007,-5.363780596829226
2023-12-07 15:02:47.776282,-6.977822041421378,1.824827554741117,2.676195506462658,-7.834103296379083
2023-12-07 15:02:47.785122,6.947175531766422,2.406310721651568,2.078042269748805,2.7095776249511863
2023-12-07 15:02:47.787155,13.906845605439903,1.3196626497755195,-2.090788416115996,8.630477307441913
2023-12-07 15:02:47.789366,3.640815899249128,-0.8142438257821042,-2.195669835043469,2.274979640745556
2023-12-07 15:02:47.798076,-7.050809295006105,-1.0705517097595705,0.6690198360671972,-3.743648855485177
2023-12-07 15:02:47.803311,-5.981433860337026,-0.0749752252753144,1.2424892166262171,-2.9349619290246216
2023-12-07 15:02:47.807312,2.839267957481738,0.024822790109602,1.06481000722105,1.9639945992248555
2023-12-07 15:02:47.813491,10.120796225638994,-0.127861890352275,-0.0536929376138662,6.239338188722896
2023-12-07 15:02:47.822237,3.3480991235050515,-0.0077184940614958,-1.208438203946645,2.3040136654053107
2023-12-07 15:02:47.829394,-10.615391446351651,0.2552566218109114,-1.0275777112605131,-5.836682010236254
2023-12-07 15:02:47.841664,-10.605774156246596,0.5314435333562906,-1.4795070541910516,-7.184344372722387
2023-12-07 15:02:47.841664,1.873599373271705,0.8611974102151513,-0.8426785531544788,-1.6415677805849511
2023-12-07 15:02:47.844883,9.71443251181283,1.5843782843007892,-0.3497978305139257,5.586187099235389
2023-12-07 15:02:47.848042,6.115483441962731,1.8047536462986469,-1.6218550423786102,7.341036310871482
2023-12-07 15:02:47.855328,-2.834682978573225,1.122472241429647,-0.2719763821552928,1.8798638402641368
2023-12-07 15:02:47.863891,-6.231866511947934,0.2469063928302641,0.4551629434029121,-1.3357730538330368
2023-12-07 15:02:47.867238,0.2578964943317015,-0.6186087067933375,-2.471205005114399,1.7171159473700517
2023-12-07 15:02:47.878061,7.377341651025488,-0.9139271869681496,-3.2070076229398965,5.29982022622248
2023-12-07 15:02:47.879205,4.338093501699826,-0.6066804219363192,-1.993048925766784,4.953191658299527
2023-12-07 15:02:47.881228,-4.407269750673507,-0.6228499496820477,-1.501514762658394,1.3201877732369405
2023-12-07 15:02:47.883355,-7.067655388259685,-0.8142298232404142,-0.652463076338003,-1.163886092772518
2023-12-07 15:02:47.889826,-1.0693513600988993,-0.7816532256469148,-0.6568519377591219,0.3932227142597967
2023-12-07 15:02:47.905261,5.794181331860165,-0.6857945391227354,-1.2957493469608896,3.6817047084372456
2023-12-07 15:02:47.905261,5.8928732236228685,-0.3294836462456228,-1.0377293422896352,4.582523729532452
2023-12-07 15:02:47.907822,1.2987007561799089,-0.083312677357718,-0.3037215387343416,2.276510632425814
2023-12-07 15:02:47.909975,-1.4412151419668064,-0.2166175216872247,0.9493956552240588,0.9264010182765616
2023-12-07 15:02:47.917975,0.7892133816492235,0.0038958560383303,1.4415053297506977,3.498426690570509
2023-12-07 15:02:47.927241,6.332963887645093,0.2413768355034433,0.3264513499535316,6.053281014228098
2023-12-07 15:02:47.930360,8.723449858579398,0.0138389777649028,-0.419715868910567,5.012647704071029
2023-12-07 15:02:47.936067,4.4788624862271496,-0.22311779619194,-0.6762482357370585,2.241930414742372
2023-12-07 15:02:47.942355,-0.4344060036436579,-0.4996391680778303,-1.007415423367406,0.0484145234559511
2023-12-07 15:02:47.947857,1.0758816061890009,-0.5633524391495821,-0.5400803682105046,0.5742006246053318
2023-12-07 15:02:47.951890,6.419586919531506,-0.3757331694904338,-0.1202408815293136,4.065631032711504
2023-12-07 15:02:47.958062,8.221184905865092,-0.3699794325475667,-0.3963905744030923,5.809922548214492
2023-12-07 15:02:47.970773,4.633900936025211,-0.237792613262993,-0.3613157928581911,3.321627108056803
2023-12-07 15:02:47.970773,-0.3598167535869396,-0.3854183462373809,-0.1597795124765186,0.212284327347001
2023-12-07 15:02:47.970773,-0.2041390288523431,-0.7878385347142585,-0.1404614482848123,0.0671987553119275
2023-12-07 15:02:47.976224,5.040803934062388,-0.4179786775202202,0.1151634813446959,2.689877399808004
2023-12-07 15:02:47.983298,47.73417660347818,1.499718522007753,1.5994956591848424,30.314552258037303
2023-12-07 15:02:47.987680,23.231856257557897,0.3471101938900214,0.7618350000901827,18.518147204379776
2023-12-07 15:02:47.996953,-9.564710581417604,-0.2289042636649067,0.5326130085125246,1.835323423926956
2023-12-07 15:02:48.001606,-14.892374553458332,-0.3699015847184785,0.930513985806274,2.0117256344043217
2023-12-07 15:02:48.008876,17.967685515581113,-0.1192843764988265,-0.2273890462993701,13.684233788472708
2023-12-07 15:02:48.019877,39.23872716194244,1.3410188182584208,1.1067655296258083,21.40008685739849
2023-12-07 15:02:48.019877,18.821820796692474,2.9390814482036904,6.452394243804075,12.989596487751994
2023-12-07 15:02:48.022098,-11.35090660429778,1.991129457674476,7.0489773075465605,-1.3283708474529985
2023-12-07 15:02:48.039668,-14.72545440821706,0.1492224534704416,2.724978820818306,-0.2047686392418425
2023-12-07 15:02:48.039668,17.218313032263033,1.4731753608066531,2.8113138067850185,14.828329363552784
2023-12-07 15:02:48.040689,41.69115381671601,2.440126966974229,4.161139650318735,28.654565098222804
2023-12-07 15:02:48.045754,24.01470249034542,0.9128266522715088,2.7673624290963703,23.24164053821569
2023-12-07 15:02:48.054127,-8.358806367497222,-0.2980827157198636,1.5024801941044077,1.7318820363003495
2023-12-07 15:02:48.059180,-14.58819599070378,-1.080763201682593,-0.4515678108503495,-4.701737226866968
2023-12-07 15:02:48.065215,14.570433173038552,0.0596691244702752,-0.3566272171274939,6.48008216885148
2023-12-07 15:02:48.070598,35.53566447096334,1.093993716337307,0.713767120825633,11.294665799125433
2023-12-07 15:02:48.076699,18.977196829967287,-0.3381235264252475,-0.4980869900730367,5.418660184277569
2023-12-07 15:02:48.080777,-3.51052243531955,0.2442883803579766,1.955505030012788,-2.091926389462814
2023-12-07 15:02:48.086908,-10.072663544095024,1.4122323251559556,3.8950113733451337,-6.038635844148446
2023-12-07 15:02:48.090419,9.298833826347453,1.163548473996767,0.6590537636389171,-1.016783370504967
2023-12-07 15:02:48.096541,41.933927096461424,2.000407985020508,0.4486520298846821,15.29534050488459
2023-12-07 15:02:48.101138,33.63892583577529,2.307517321446492,4.055167858065668,20.472284680703776
2023-12-07 15:02:48.104154,-7.349607916729877,2.325131533245392,7.10741715481651,-0.4208882969448241
2023-12-07 15:02:48.108584,-20.290162676438506,2.4925389847095576,6.974678828901084,-13.704021357617645
2023-12-07 15:02:48.113610,1.2681239103767032,2.6594996114825684,5.609677982244904,-1.2544265182830696
2023-12-07 15:02:48.119273,26.63866543637927,3.520522685695041,4.567010107840319,10.381950602041352
2023-12-07 15:02:48.123292,25.950757335030453,0.6801588822356806,-2.4300020218067493,7.654090293752233
2023-12-07 15:02:48.128848,-5.234837861979427,-2.9317350311660104,-6.848231909784394,-6.636203187275447
2023-12-07 15:02:48.135018,-27.134183600709378,-1.119628314786372,-0.485055916340768,-20.07995944376625
2023-12-07 15:02:48.143476,-12.661709043796144,0.4240619239668678,2.111114712010316,-13.051903883357376
2023-12-07 15:02:48.145606,17.404464180823066,0.0323261628837108,-0.7893191283383735,3.923852163735412
2023-12-07 15:02:48.159495,24.25823662936162,0.8556746721412272,0.0374998625696086,9.055785926661356
2023-12-07 15:02:48.166714,-5.190500639711577,0.1308863702724271,0.981817701605532,2.0149506301946785
2023-12-07 15:02:48.166714,-29.85331908943613,-1.1326686731808109,0.9255972345976974,-9.283766917767723
2023-12-07 15:02:48.168780,-11.246750908122278,0.4183026298601715,3.048632988230637,-9.361694346932154
2023-12-07 15:02:48.172801,24.29270545064368,2.97001882094705,5.173130764082235,6.935526068075395
2023-12-07 15:02:48.182923,30.849559271548667,2.9732385702689688,2.551612056289996,14.13900731726594
2023-12-07 15:02:48.186943,5.369955607458514,0.4540855911422538,-2.5420159993641165,-3.1215354828743225
2023-12-07 15:02:48.192211,-18.08546133431557,-0.0657254238417826,-0.9627777031243614,-20.05863737640242
2023-12-07 15:02:48.195565,-12.268437691680424,2.108237859197857,3.580266864503111,-12.114261354796431
2023-12-07 15:02:48.202341,16.89147773987522,3.0596668936798355,2.554025717646079,10.598724067056546
2023-12-07 15:02:48.207899,32.39707752156107,2.405223121903642,0.6693342435470607,21.21241106948101
2023-12-07 15:02:48.215683,6.974780668548139,1.5578934701733098,0.1672091147113021,6.66861024115688
2023-12-07 15:02:48.223270,-25.184386024336845,1.19474468277287,0.4492627505681189,-11.934736004541527
2023-12-07 15:02:48.235595,-20.14840825529813,2.0525438812743326,3.636617559787094,-9.837202277765476
2023-12-07 15:02:48.235595,5.739104963173271,2.381069137334752,3.4522360710403546,5.286469158826834
2023-12-07 15:02:48.237621,22.23318182266844,0.4601907573019379,-2.7355387853364754,16.433411395696158
2023-12-07 15:02:48.241823,17.232245071805565,-0.3866428522416039,-3.780476534761749,9.9809864984727
2023-12-07 15:02:48.246909,-9.200905810033037,1.7746848351169155,4.919241203276628,-6.280918092651327
2023-12-07 15:02:48.261933,-20.98215546104832,2.135708947027461,8.733022227272253,-5.678169040118518
2023-12-07 15:02:48.263953,8.275333227596423,-0.0129025569138277,1.2797582821592248,5.681178225665977
2023-12-07 15:02:48.268042,36.412287049710194,0.6344056844216133,-1.7803734182757431,9.37939722649489
2023-12-07 15:02:48.273411,18.346239851661352,2.86910827942956,2.2993994342102857,2.632211530717376
2023-12-07 15:02:48.282497,-20.69962780164293,1.810947078236092,3.041200759665274,-11.764983752092744
2023-12-07 15:02:48.285654,-27.00176240949365,-1.4557622575461313,-0.3947364420603255,-18.14180135206164
2023-12-07 15:02:48.291004,4.826063498470501,-1.5714628521847065,-1.889598921381204,-9.416267499343876
2023-12-07 15:02:48.305414,28.94895306947783,2.2439449419035133,4.25133381159503,1.005904903364286
2023-12-07 15:02:48.312963,13.845364051895167,3.960621970900952,7.125747653529251,-3.030768681399129
2023-12-07 15:02:48.313973,-16.908459611105012,3.699017168027497,4.164707288502267,-15.66612890975912
2023-12-07 15:02:48.317496,-20.87331782627357,3.854634301788882,7.594104509203806,-16.326400155767008
2023-12-07 15:02:48.319696,4.9160627579614085,1.0545285202023098,5.230258102142014,-6.959819876520499
2023-12-07 15:02:48.324757,24.645339130351275,-0.9868414703351912,-1.252599057597717,9.079832557518024
2023-12-07 15:02:48.329825,14.424429328296188,-0.4483684068655405,1.843616809819611,15.22225684301255
2023-12-07 15:02:48.335035,-12.264378134765977,-0.6438481695267089,2.915130997311779,-9.620482741338336
2023-12-07 15:02:48.344417,-22.33717887485919,1.904647498579356,5.576760123200645,-22.07883076528009
2023-12-07 15:02:48.349591,-2.1186934928750456,4.434546378414429,10.121712354978506,-2.4359212036054023
2023-12-07 15:02:48.358455,19.582143969020617,3.501147344774824,4.373144361204499,7.317844870617305
2023-12-07 15:02:48.366734,13.876474639586224,2.56296026907524,0.8875609817624119,2.4521349818451457
2023-12-07 15:02:48.380368,-9.441891949546552,1.813556314838547,5.599099535841306,-5.980366837418913
2023-12-07 15:02:48.380368,-27.694326862772115,2.127225526557769,9.00971017718606,-15.310511220542171
2023-12-07 15:02:48.381575,-17.028615675829112,1.000254614573543,5.587975368735547,-13.722015863667218
2023-12-07 15:02:48.386065,20.8262617142614,-2.1791455647855447,0.9280196177096278,0.3909864377366012
2023-12-07 15:02:48.390083,25.258926633954616,-1.3743563278836262,3.4589880965309554,7.376815076118574
2023-12-07 15:02:48.402386,-18.9198010835684,1.4664484537035476,3.8750443240127352,-14.980355809028396
2023-12-07 15:02:48.408504,-36.76743720856035,2.225370091847277,2.70335762058093,-35.65871843947696
2023-12-07 15:02:48.414023,-11.288719428987536,0.2192806545695323,5.630575047549458,-20.143121698230622
2023-12-07 15:02:48.418694,5.663021247907555,-1.7451929140177516,2.1299042636792387,1.9268354645890569
2023-12-07 15:02:48.424949,-2.3483887057514745,-0.976482594095884,-1.794612189897466,5.27945729812247
2023-12-07 15:02:48.429319,-24.88699936310296,-1.569902678120883,1.810342989887542,-10.859233652594432
2023-12-07 15:02:48.437094,-36.61069961484689,-0.1367876408333529,4.151898567450719,-26.72353018265973
2023-12-07 15:02:48.450890,-18.025318785700343,3.6361762293226136,4.14441828785565,-15.223339238013995
2023-12-07 15:02:48.451895,7.7161769809817295,2.197361867889328,4.828143258743615,0.0765865214038344
2023-12-07 15:02:48.452910,12.212818744672,1.915081829477274,4.405915192978382,-0.2911251086775056
2023-12-07 15:02:48.471032,-6.639982704380601,3.0716296437690067,2.329911634071899,-7.863276746825761
2023-12-07 15:02:48.471032,-24.62619293335175,1.5046738061418932,3.180959090217085,-24.133898237707307
2023-12-07 15:02:48.473109,-13.95284475455258,4.393971818103845,8.091863866179567,-25.55924139568712
2023-12-07 15:02:48.477474,18.457006680611,6.383679239030128,8.878932190743924,-2.6630354826088243
2023-12-07 15:02:48.482629,35.00689748012152,4.258635001238134,4.129916575067801,9.94359152007946
2023-12-07 15:02:48.490295,11.788652588243853,4.654004714529143,0.9455029949389993,2.159710852869213
2023-12-07 15:02:48.495379,-23.92408929520388,2.5055134974471405,-0.8881836577519829,-10.46752832090578
2023-12-07 15:02:48.503932,-29.880894699984164,0.4200860795604733,-2.542683642591751,-11.632317454753345
2023-12-07 15:02:48.508006,-2.938773793164727,4.189891495007517,2.6988195998996134,8.863628510040574
2023-12-07 15:02:48.512636,18.32358027801262,4.842763987185129,10.5479490533623,28.597500679505828
2023-12-07 15:02:48.518996,-3.6105214850014113,1.9397660432294737,9.32563553090679,16.934075966432523
2023-12-07 15:02:48.524415,-38.049092913948336,1.2328673938795889,5.269934470845072,-11.36732877980284
2023-12-07 15:02:48.531986,-35.30247804218358,-0.5880588054151052,4.537523695505155,-17.17145028296768
2023-12-07 15:02:48.539375,-6.90331677210491,-2.6196404206852213,2.2480459299873923,-0.5829094646694212
2023-12-07 15:02:48.549846,13.646263313902557,-1.7657718535140454,0.234520133025114,8.747970507479417
2023-12-07 15:02:48.556438,1.2983625082721784,-1.5001446223505182,1.489195771208046,2.9200370591221287
2023-12-07 15:02:48.560748,-31.83755157347043,-1.4724898393465744,4.921163690807292,-8.723345438929497
2023-12-07 15:02:48.566910,-34.58470535797077,0.4016647093981089,7.016619342270414,-13.902099933447952
2023-12-07 15:02:48.572611,-3.19329363202168,1.5276285525107531,4.656547652043834,-1.399169588478745
2023-12-07 15:02:48.579196,16.652885948488482,2.730671418227746,2.931764839635262,14.04214714591083
2023-12-07 15:02:48.585449,3.556161466523539,5.020650963283705,4.4397709704627975,9.5433448841283
2023-12-07 15:02:48.599159,-27.299443019212084,3.374689712621401,3.5628209805765025,-9.751836644671892
2023-12-07 15:02:48.600166,-46.11231189685378,-2.21734393382872,2.403756547393894,-24.47102539890628
2023-12-07 15:02:48.602238,-27.31981470955825,-2.4566232894045,5.548847135437717,-14.827294710936195
2023-12-07 15:02:48.604309,10.712485724451769,1.8850528591189413,2.8227574484610853,10.577766185121767
2023-12-07 15:02:48.607336,10.569241995439414,0.2557125250179495,-6.034336856861966,9.55093009573045
2023-12-07 15:02:48.633246,-26.88968650909317,-2.3310310016939333,-4.541416579925229,-15.516998476941648
2023-12-07 15:02:48.634252,-43.94050932199116,-0.2554650000156728,1.213901582329553,-26.80702779937289
2023-12-07 15:02:48.636250,-25.568644644042426,0.3649341839708871,-0.0937863415543888,-18.267456761282403
2023-12-07 15:02:48.640248,5.28384956245491,1.734600746215688,-1.2310381544397235,2.5608850881577694
2023-12-07 15:02:48.647245,14.81866231641885,3.1023522411687843,-1.529721133431993,14.87379056727217
2023-12-07 15:02:48.653253,-19.036133686126373,0.6978580111206725,-1.993485557097661,1.441217477237528
2023-12-07 15:02:48.660245,-50.82686215019292,0.0273113422611968,0.4192450764194687,-14.937583023349802
2023-12-07 15:02:48.680251,-27.12452127706035,0.5028784523438252,3.9789795343565366,-14.680192638136276
2023-12-07 15:02:48.680251,18.70760518714789,0.323310328708448,7.342950441789165,-1.0974132750894543
2023-12-07 15:02:48.681251,20.25952757891372,1.6722761231665764,8.432086622306054,7.675836901057174
2023-12-07 15:02:48.684256,-19.54579978532496,1.7990614084748726,5.44613772634747,-7.14058301100443
2023-12-07 15:02:48.691263,-44.47782902146045,-1.4470196759697571,-0.7163092333172121,-23.42656614401152
2023-12-07 15:02:48.700255,-31.111596746398032,-3.738884523868954,-3.0724288418663384,-11.095898787036772
2023-12-07 15:02:48.705258,1.1585356757815664,-0.9953759473912344,0.3792550514188183,12.70816009526842
2023-12-07 15:02:48.712262,14.709542749997782,1.271119476579816,0.7028607907679327,15.04336546076804
2023-12-07 15:02:48.722609,-14.433320810041172,1.3494202734523957,1.5578617811544229,-2.7603690775610072
2023-12-07 15:02:48.730607,-44.78044419785836,0.5185144765151273,2.435969451818484,-21.10341101308446
2023-12-07 15:02:48.734607,-32.41610391000783,-4.085197868063384,-4.263520460564967,-26.5199221522319
2023-12-07 15:02:48.740609,-2.485564314587013,-2.3401627772955,-4.564978952459495,-5.922873160844873
2023-12-07 15:02:48.758615,10.372533164845878,2.465854684840983,0.4419806581702732,16.257807883736312
2023-12-07 15:02:48.759614,-3.399718357465244,-2.7254583098751297,-2.428565819819718,5.054635063566089
2023-12-07 15:02:48.760616,-31.13016380774172,-1.9939528542748348,-2.056662928815207,-10.906862131807806
2023-12-07 15:02:48.764613,-33.77701640655146,2.785566579549481,1.0252760206912597,-7.44636633826139
2023-12-07 15:02:48.780868,4.253507132710492,-0.7258798725831246,-2.6298647148940564,2.1011639514026235
2023-12-07 15:02:48.785070,36.033800995519286,-0.2878844929407507,-3.024002185996648,12.520959875734489
2023-12-07 15:02:48.793104,14.53791462431896,1.8552590590209268,2.6234811802999523,7.455594953183935
2023-12-07 15:02:48.807115,-29.059424587980644,2.2056709832158714,7.698713366170657,-13.669010680378646
2023-12-07 15:02:48.807115,-34.59612480314037,2.236053293445318,6.73853736486364,-19.91990131973496
2023-12-07 15:02:48.809118,-0.6463854550239645,-2.8050321624892267,-1.6480912855878893,-4.714679594546373
2023-12-07 15:02:48.814117,27.225223940584925,-2.675323072572598,-4.307430731741579,12.356886261088045
2023-12-07 15:02:48.827629,13.447235454062506,-2.228245957090045,-1.6395907952854087,9.119077165443672
2023-12-07 15:02:48.840626,-24.56662855300221,-7.233099788676797,-5.475422500607061,-13.29012822855997
2023-12-07 15:02:48.840626,-33.36049026696945,-2.3797757671115574,-7.167019134061792,-22.604618999782748
2023-12-07 15:02:48.842628,2.123306081144998,1.6771457397518017,-5.181736631336543,-4.002454384251175
2023-12-07 15:02:48.847628,39.1872563265965,-2.541876544920223,-5.735846914330907,18.85724079732775
2023-12-07 15:02:48.853629,34.19123568164765,-3.4863432373077536,-3.421682234376925,15.499671262009551
2023-12-07 15:02:48.866632,-5.836093491001384,-5.817624559845701,-2.674974454947733,-8.866912499347226
2023-12-07 15:02:48.870641,-24.65363487154721,-6.267490506920334,-7.050205772952775,-14.814720792131885
2023-12-07 15:02:48.873634,7.439833024663051,-2.440800686934216,-9.068118498955378,7.463533736693865
2023-12-07 15:02:48.884659,40.07983923729088,-2.371271376802277,-8.441539615207427,23.905051547128352
2023-12-07 15:02:48.887716,30.00962089652812,0.8681819994405837,-8.93133127352616,12.116323102018344
2023-12-07 15:02:48.893770,1.5883209260801543,6.38007449435218,-9.600291863201631,-13.116630522923012
2023-12-07 15:02:48.897797,-12.018017254905203,5.849165504936242,-7.151116335456051,-20.0830466379125
2023-12-07 15:02:48.901798,5.174015763278045,1.7651888173141854,-3.685639002221525,-1.835981508953054
2023-12-07 15:02:48.914802,34.378968047733885,-2.3693903489170847,-2.8049228143359164,14.638347875243422
2023-12-07 15:02:48.919318,30.03397262480665,-1.1697972773939322,-4.486217708358369,13.5994926888961
2023-12-07 15:02:48.922317,-3.125052639181699,1.074048925059046,-7.264808656332213,1.4666676431533665
2023-12-07 15:02:48.927320,-19.64181069580801,-3.6831097468875926,-6.589264080623574,-9.33927039074782
2023-12-07 15:02:48.931317,-0.1402817126801183,-6.325483119013482,-6.453097737248365,-1.705550787457141
2023-12-07 15:02:48.942320,33.73853284047981,-2.583980126980709,-10.263336394955,18.72163867374874
2023-12-07 15:02:48.948322,39.91057525213871,-0.7636117172683279,-8.56376944017851,25.39467327759307
2023-12-07 15:02:48.952324,8.707911679428186,-2.846262773405272,-5.412794775860037,13.13977445145362
2023-12-07 15:02:48.971409,-17.278712418415065,-4.211926025158885,-8.774273392265345,-0.6379367281499569
2023-12-07 15:02:48.971409,0.8853569849165229,-2.670056463231319,-10.672432193687165,1.6595297998640277
2023-12-07 15:02:48.972421,38.8086944002332,-1.815961791624132,-10.107496277881038,15.257649273573138
2023-12-07 15:02:48.992457,38.88805331318725,-3.694321046510552,-11.79723544171364,14.274774319397864
2023-12-07 15:02:48.992457,3.4825626180781604,-6.672295492800434,-11.98717381765566,-2.6163492362004046
2023-12-07 15:02:48.993452,-17.67305832290746,-7.10468466882788,-8.5374952405275,-7.007477398178163
2023-12-07 15:02:48.998455,-6.408102958804213,-3.044803685421355,-4.549597227078195,6.126255414401099
2023-12-07 15:02:49.005461,23.56597756551861,-1.068313040994658,-3.684716984561801,17.243021186614666
2023-12-07 15:02:49.013463,35.3062817826544,-0.6759892411089289,-7.32292984775879,19.53989531451602
2023-12-07 15:02:49.020978,7.130354567507393,2.3855418923651923,-10.934029307221255,10.538556323591935
2023-12-07 15:02:49.031981,-16.913918865097408,1.971128972085148,-9.542571406389442,-4.143659944650602
2023-12-07 15:02:49.035985,-5.282331969984948,1.0336705426356072,-6.200512347847418,-1.892803508620854
2023-12-07 15:02:49.042985,21.52445814080821,1.883995195942126,-4.887132313831805,14.61556103527162
2023-12-07 15:02:49.050987,39.95001520489169,-0.5475186323035288,-2.2477138861916988,19.70710145799619
2023-12-07 15:02:49.061996,23.134362676918272,0.349949372955905,0.16723435320327,7.735735259547481
2023-12-07 15:02:49.078386,-14.857754274758577,2.7828772521759206,-5.867247490247887,-7.678929094755666
2023-12-07 15:02:49.079435,-16.76703083996905,-0.1677640671829053,-14.457945652010867,-10.204246781769852
2023-12-07 15:02:49.082674,13.760444883288477,-1.371481430795436,-15.274691034750576,0.6802728925135605
2023-12-07 15:02:49.088735,24.440413662772084,-0.3916129968366163,-11.339049242262623,6.910625238662375
2023-12-07 15:02:49.095947,4.403289517903674,-1.3137933532160029,-6.67156674019103,2.731518157693863
2023-12-07 15:02:49.101275,-15.127403998016192,-1.0744406431612088,-5.890939152583623,-2.270560864724432
2023-12-07 15:02:49.108371,-13.37225140439718,-0.967401025542318,-10.008169339748772,-4.411330268565506
2023-12-07 15:02:49.114510,4.799104514947172,-3.161909389084648,-9.795002743792308,2.115775000091018
2023-12-07 15:02:49.119031,20.669497371877405,-2.800719532087751,-6.839687917677609,13.132517044344477
2023-12-07 15:02:49.127363,11.096076380264604,1.1575955951207884,-6.400388269485179,6.544922081755978
2023-12-07 15:02:49.134427,-13.78277828751029,2.1866007608194,-3.2524340083720684,-8.428723513076788
2023-12-07 15:02:49.151484,-18.58678230235336,-0.0868922261472861,-2.159982485830547,-9.69071619427882
2023-12-07 15:02:49.159486,3.757758802938754,-0.3363998998071843,-8.05112159133885,-3.9033052885481982
2023-12-07 15:02:49.160486,27.222737641283867,1.0064788718111384,-10.01036684653774,5.651607149360253
2023-12-07 15:02:49.161487,18.14334713392905,1.143057928864812,-7.768353969454365,9.465413700993992
2023-12-07 15:02:49.165518,-13.028027801056634,0.3819201638468418,-8.299336647737869,-1.554747096589979
2023-12-07 15:02:49.173665,-21.057836144694143,0.7995283098903323,-6.706205041697446,-5.65695404016061
2023-12-07 15:02:49.188781,1.1145125671008786,2.144532491168285,-5.299437347870576,1.719290090332441
2023-12-07 15:02:49.195782,24.326292772888344,0.258027038948341,-6.876636337763106,6.687825726750871
2023-12-07 15:02:49.202834,20.669757348795223,-3.671793329801349,-4.989852698586505,7.394801331331884
2023-12-07 15:02:49.208985,-3.5544145290206286,-4.330920260841499,-4.673818191325427,-0.8042585547275557
2023-12-07 15:02:49.215067,-16.963862796676548,-4.193573006168352,-8.900321231333999,-14.10640708066601
2023-12-07 15:02:49.222704,-7.598324606108483,-5.0234879921772615,-10.296265290453638,-15.004781240841082
2023-12-07 15:02:49.225749,13.764729121401244,-3.7225546509506864,-7.6122517806259005,2.238901066182806
2023-12-07 15:02:49.244755,16.8458577500435,-2.9906016290093773,-3.3158847128157647,15.498367827389169
2023-12-07 15:02:49.244755,-4.362692057833634,-3.775813452420976,-2.3012489067813977,3.512017758190888
2023-12-07 15:02:49.246753,-16.02927689539321,-3.6892005943084,-4.978524385984629,-11.721262670228452
2023-12-07 15:02:49.253761,-8.341477552274652,-5.151237033576575,-6.12734922138757,-5.430665680250647
2023-12-07 15:02:49.267869,7.822730718498732,-5.551132236988823,-6.109233666810073,6.284286873374195
2023-12-07 15:02:49.269931,16.64034986699723,-1.4183608892664554,-4.026726374253313,6.908294132195092
2023-12-07 15:02:49.279020,3.749623038779785,1.493751575398056,-1.9709556489761888,-0.190173868578432
2023-12-07 15:02:49.284163,-12.569562650470871,1.3408779658158634,-5.828876707720235,-7.870945478118017
2023-12-07 15:02:49.286212,-7.688897557775661,0.978407947718369,-8.037170754643684,-4.703867663866835
2023-12-07 15:02:49.291240,13.464960854709291,0.192430166909836,-3.9970682684580505,7.3083968235031485
2023-12-07 15:02:49.296243,20.15361714249012,-0.3448298444139805,-4.1644093916075375,8.630661536951594
2023-12-07 15:02:49.308249,2.1156443968019856,-0.6368111646676108,-8.366778754107935,0.4571429454945302
2023-12-07 15:02:49.315250,-11.191085330699355,-0.932070650558902,-6.570100799441847,-3.014188619312814
2023-12-07 15:02:49.334767,-7.283238575798149,-1.132278744936821,-1.8457892153113464,-4.056370202830596
2023-12-07 15:02:49.334767,3.685914689676719,-3.069417009279828,-1.81735482272602,-1.0101281686065573
2023-12-07 15:02:49.336770,10.925837080348767,-4.363074477783743,-3.917782864833373,7.281134493689374
2023-12-07 15:02:49.340765,1.766557738971033,-3.518721927098513,-4.864193675226733,3.351144440260064
2023-12-07 15:02:49.344767,-13.550599494091648,-4.220385214118562,-5.388635651613779,-10.228687869216532
2023-12-07 15:02:49.349767,-14.084026070729031,-4.69672615236392,-3.945537909412428,-10.44955592289104
2023-12-07 15:02:49.355769,0.1768019412693247,-2.67473275110136,-1.062817267137513,-0.1050757122408376
2023-12-07 15:02:49.372776,12.811558186366176,-1.390039068230299,-0.3189487484973624,6.002936917070556
2023-12-07 15:02:49.377775,6.756194945618573,-1.6201598529267438,-1.117342125039828,4.044354737213401
2023-12-07 15:02:49.391781,-9.817128237246637,-1.7990427951802122,-0.8315259331655679,-3.310368197564072
2023-12-07 15:02:49.399779,-11.649089322744429,-1.3240506386428104,1.313081797782314,-4.84623175293232
2023-12-07 15:02:49.416785,2.427513721296099,-0.5462607733944176,3.1315734639996435,1.712579414074229
2023-12-07 15:02:49.416785,11.19374476974374,-0.350911689366287,2.856724628525129,6.384935416559362
2023-12-07 15:02:49.417878,4.001349695761194,-0.4857788076544606,2.890333074011065,5.230442951996458
2023-12-07 15:02:49.422881,-7.633405040490858,-0.3837387689142877,2.6636662030104503,-1.5270537119610543
2023-12-07 15:02:49.427879,-8.183824881373386,-0.3631459743292441,1.1807353087945205,-5.081304519659377
2023-12-07 15:02:49.442145,2.139667470596849,-0.8051184412291236,1.3419970884604293,1.371176010675366
2023-12-07 15:02:49.452163,10.373961549704529,-0.8707235513626519,1.3430208199166702,5.757671084249788
2023-12-07 15:02:49.458162,6.467671080384791,0.0482709416992983,-0.2060081327805675,1.734739522139353
2023-12-07 15:02:49.463185,-4.574531730858248,0.1308505282361839,-0.354114662583711,-3.454603623015208
2023-12-07 15:02:49.466214,-8.636581620987096,-1.257449850480963,-0.2954874854724574,-5.946617114804704
2023-12-07 15:02:49.471264,-1.5541272134896926,-1.6186242160619275,-1.482042489227836,-3.889440162966877
2023-12-07 15:02:49.476303,7.441667585422568,-0.074995232174834,-1.353586057226463,1.6340697449230095
2023-12-07 15:02:49.502319,8.25747852868783,1.509889836117226,0.3981983411135479,4.167126509111082
2023-12-07 15:02:49.503318,1.1670416819439406,2.4107828695109936,1.1346021308636394,1.112927812166658
2023-12-07 15:02:49.504318,-3.3277791239380208,3.061533433205704,0.8518250944923939,-1.9841793892956403
2023-12-07 15:02:49.525839,0.7088242523603593,2.7908186205942176,0.9933884306517994,-0.1504985678309635
2023-12-07 15:02:49.525839,7.092727442930976,1.778301181457385,0.9209497211145156,3.527167512274929
2023-12-07 15:02:49.526840,7.3545333999305935,1.260572010051399,0.9280602667453834,3.87371834255496
2023-12-07 15:02:49.529840,0.5980794367398711,0.9579118032272184,1.7050948125642342,0.94761704752789
2023-12-07 15:02:49.539888,-3.8863176988209824,1.24319983126634,1.7194812267941533,-1.5576169605763348
2023-12-07 15:02:49.552147,0.6788036008488958,2.732079442328897,1.349754423412776,-0.4637759313830006
2023-12-07 15:02:49.562173,6.459624231198517,3.25880723161524,2.331276929395158,2.991809120212813
2023-12-07 15:02:49.567174,5.353881781760517,1.982930768858068,2.6119333323244844,3.756823899352435
2023-12-07 15:02:49.571189,-0.5389791644795048,0.7671693983603005,1.0415440031147225,1.069081820401519
2023-12-07 15:02:49.591309,-4.830476629255597,0.31197948190856,0.578495559349749,-0.8755846677562479
2023-12-07 15:02:49.591309,-1.842340589849904,0.5870505249559584,1.1817425327035498,-0.3217211527220801
2023-12-07 15:02:49.593310,4.607793888697211,1.3666874677329184,0.971934673815604,1.9701244706379284
2023-12-07 15:02:49.596309,5.953992963644933,1.72694147480955,1.0836560718112425,3.201845244753664
2023-12-07 15:02:49.600313,1.7602753671687057,1.1567360824321429,1.7249367474262791,0.3434484082331036
2023-12-07 15:02:49.608322,-3.152490349194316,0.1456211513435202,2.0650804863139665,-3.514190971787342
2023-12-07 15:02:49.631854,-2.778798543521637,-0.2602457624793758,1.878380689116252,-3.817210924344308
2023-12-07 15:02:49.637855,2.653620521789445,-0.0304297144086674,0.9149379920613052,-0.6892804397190537
2023-12-07 15:02:49.645849,28.945567031132548,0.8746827584251854,3.5315285631066704,17.735010783636874
2023-12-07 15:02:49.654852,-1.0639069224036617,-0.6628422625708961,6.586361147841483,13.28733297354607
2023-12-07 15:02:49.665854,-31.8521236867449,-2.2857720055890223,7.415798972782873,-7.814398986488387
2023-12-07 15:02:49.669864,-31.933081961917573,-0.0685279007383737,9.11651158852182,-7.674415427526617
2023-12-07 15:02:49.684864,-1.003366819885383,1.185961383493961,8.689770363476047,9.409293265542154
2023-12-07 15:02:49.684864,21.04872778691499,0.8613801088362714,4.867020036730473,17.866680875206985
2023-12-07 15:02:49.686858,3.379044989377036,2.506250808014643,5.18972453988527,7.595886859223403
2023-12-07 15:02:49.691861,-29.496726404034405,-1.9033273341268395,6.597401493626023,-14.36887236658478
2023-12-07 15:02:49.702905,-35.84519178622708,-6.77114716062812,8.383041273550836,-19.372564943502148
2023-12-07 15:02:49.722534,-8.8800823519774,-4.141841352845511,8.617608288713948,-1.9992320029494115
2023-12-07 15:02:49.722534,13.225870470264846,-5.572185977277214,5.37878076605795,10.02823782268018
2023-12-07 15:02:49.724561,-6.391937481947059,-8.193341377638758,9.190618378048534,5.807330192142303
2023-12-07 15:02:49.729583,-42.89591353044189,-5.730695412515601,12.696390623666964,-7.974560245023791
2023-12-07 15:02:49.737777,-43.72506764021448,-5.29653791289069,7.487999325714847,-16.20436620700183
2023-12-07 15:02:49.748810,-10.571185774584372,-4.249109240033725,8.433134245684096,-1.0931901268998414
2023-12-07 15:02:49.756812,16.322200010301657,-1.1747223630010777,13.12692456386833,20.18553886771985
2023-12-07 15:02:49.775859,8.21866239597203,-0.2320605682174856,11.391389759511334,12.98358874493336
2023-12-07 15:02:49.776885,-29.01456306488252,0.0834446166602097,12.133908149929445,-8.374026965852215
2023-12-07 15:02:49.777899,-45.02510653530321,-1.1103673724442755,17.11507869636092,-9.503059770623798
2023-12-07 15:02:49.778911,-13.956850246917408,-2.911442161064524,18.33663365819764,4.672896238432108
2023-12-07 15:02:49.782952,18.30450512059395,-1.816164427458288,13.99727360421301,16.837011061126127
2023-12-07 15:02:49.793989,5.561400019812283,-1.5154179208259648,8.450461806726459,9.719419273616282
2023-12-07 15:02:49.804013,-31.43550577934918,-2.922633562545306,8.478387376265944,-15.369353224816813
2023-12-07 15:02:49.820526,-37.47136568773292,-1.1453645179244147,11.944612126228822,-21.035374907743787
2023-12-07 15:02:49.824523,-7.567538365954532,0.5992149407110006,13.290452664596549,-1.909284315710689
2023-12-07 15:02:49.833540,17.66629046104796,-0.2044601493578766,14.414644784284317,15.82282067586086
2023-12-07 15:02:49.848529,13.73720382486082,1.2817513498793944,13.682847455186378,13.51335887175757
2023-12-07 15:02:49.855582,-18.887140985619407,1.594862648389438,11.091614814541211,-12.113455896942757
2023-12-07 15:02:49.857822,-41.48609551889165,-1.1815228358604644,11.451653200807105,-25.14050985383804
2023-12-07 15:02:49.862001,-15.520621991826992,-0.1002402447766648,9.868538137613784,-14.084230592645552
2023-12-07 15:02:49.870066,22.23235817654031,2.422729855592445,5.716587412869869,-1.0744702132370103
2023-12-07 15:02:49.877067,22.35152940817872,2.814834829246314,7.3082378924137155,12.193526531851925
2023-12-07 15:02:49.893071,-8.205976428408833,1.939007585576312,8.820453056642258,0.9439790858938596
2023-12-07 15:02:49.898071,-34.10599846769056,-1.704149562988038,4.833060277602678,-29.554354230783964
2023-12-07 15:02:49.907076,-18.879165880958976,-0.4069859742550752,8.268935529188854,-19.624356923766666
2023-12-07 15:02:49.922707,15.895020636539952,5.407801653580804,15.54900710386815,13.352553123719687
2023-12-07 15:02:49.922707,11.113258111131444,2.109664919352112,9.518319493250177,12.444523501583491
2023-12-07 15:02:49.923712,-20.067500912700343,-1.9114052810469648,4.02641645784641,-6.860916593873728
2023-12-07 15:02:49.928725,-38.35408054616239,1.4290422220991066,8.989422575257203,-12.401867525762706
2023-12-07 15:02:49.939933,-36.31363008179493,-0.0285405794694476,8.283056054896027,-9.95823938465551
2023-12-07 15:02:49.962983,-7.317423629174121,-2.522732543591246,6.405965015220773,-2.605230558828337
2023-12-07 15:02:49.962983,16.598955907464397,1.2630669612303609,9.520760828814357,8.699576661105239
2023-12-07 15:02:49.963984,-3.12597513330956,2.0954020523120924,7.763059501791997,1.1588134755360795
2023-12-07 15:02:49.964984,-32.79002377081655,0.3868710519500142,6.069276221405492,-16.63731064783227
2023-12-07 15:02:49.976985,-27.727360026948105,2.582718908761492,8.988437878352277,-13.079993205735695
2023-12-07 15:02:49.980987,3.017999174944554,4.5622665976791925,10.45000905778616,2.1665040715315187
2023-12-07 15:02:49.997990,19.79167923977682,4.414848451687489,8.711964860448639,10.954930752897168
2023-12-07 15:02:50.003995,2.869506748060144,4.204682800695616,7.225092779928911,6.891987676476399
2023-12-07 15:02:50.013998,-22.74933745194828,1.393024045091522,10.34241245016245,-8.462903183264599
2023-12-07 15:02:50.017507,-21.19298650157236,-0.6373639622368054,13.008689871894644,-8.424925855046775
2023-12-07 15:02:50.023516,9.361351647521364,3.186559845447464,10.332838801108489,11.811639145659834
2023-12-07 15:02:50.032513,27.88220948650625,3.933712031481416,7.122941794164669,17.662223565625283
2023-12-07 15:02:50.053722,6.760677442331875,-0.4152468475798594,6.545778900605047,0.5142172585326752
2023-12-07 15:02:50.053722,-23.02057898412422,-0.8661868217687422,9.159571482185152,-12.965726404131829
2023-12-07 15:02:50.054720,-22.634109335443814,-0.0071737917002695,11.24109760728616,-12.51736551079187
2023-12-07 15:02:50.059722,8.905191102863789,0.1490985712882766,8.726372704086724,-2.982532167170659
2023-12-07 15:02:50.064726,33.303749763807616,0.6820198232955371,4.767754616347308,9.983456262367351
2023-12-07 15:02:50.079897,16.424449607333198,-0.1636332072292187,5.821282558533292,8.695335386528972
2023-12-07 15:02:50.088898,-13.089087533085658,2.116951053301915,13.521667860246778,-4.543818271022697
2023-12-07 15:02:50.092899,-14.57020504714528,4.091327989400464,14.403901725383006,-8.646870298005817
2023-12-07 15:02:50.104917,7.388018868680579,1.8794926178260216,5.272584485993656,-2.334282847235202
2023-12-07 15:02:50.129142,25.60091181263344,3.9418977829308255,3.991062246030193,7.82437595619141
2023-12-07 15:02:50.129142,16.33300082698653,6.6180250838383765,8.341963601122032,9.871644443781092
2023-12-07 15:02:50.131176,-8.675008000237268,3.406866748040997,6.975959154713358,-1.449855009621445
2023-12-07 15:02:50.152983,-16.45074191172902,1.2187429781925396,5.59083636546115,-8.904306696779056
2023-12-07 15:02:50.152983,1.109198390890477,1.4512169206172836,6.325230434390179,-5.75534496646293
2023-12-07 15:02:50.155031,23.25707943994629,1.6896206119202803,6.482676784018086,2.390821662653777
2023-12-07 15:02:50.161099,21.0498254116584,2.602663661749702,5.845330071446749,7.603847481854328
2023-12-07 15:02:50.175182,-1.97981708975974,1.205158969826894,4.709839916967926,-0.4147942436912864
2023-12-07 15:02:50.183241,-14.680230828206897,-1.0123659875704478,4.8347409385536,-8.767373642031325
2023-12-07 15:02:50.189291,-3.105854409930853,0.8424744153681599,4.99011295561766,-0.9577196807218964
2023-12-07 15:02:50.194322,19.81496737234745,3.03252779728477,6.365528179342414,10.574220475654023
2023-12-07 15:02:50.197359,23.84914714455208,1.769935609776527,9.61416905581919,10.093222954667327
2023-12-07 15:02:50.207430,2.726130138035021,-0.6634912676353081,7.002461697412478,-0.3632692618651009
2023-12-07 15:02:50.217118,-12.767190680750348,-2.823065009588409,0.71875866762348,-7.681965727129438
2023-12-07 15:02:50.222213,-4.916362242639082,-3.349900493368548,1.5610495452504658,-3.7811443277983856
2023-12-07 15:02:50.249263,15.972306592088724,-0.6250842672833217,5.399090745438288,6.269111426190768
2023-12-07 15:02:50.249263,24.33236445281629,2.4948871552845704,4.83344300868819,13.213036925323408
2023-12-07 15:02:50.250271,5.994411854973112,1.5299247486704246,3.980677990250677,7.425118468323732
2023-12-07 15:02:50.254303,-13.378459301660463,-1.320885246008474,4.232727082435093,-4.512296974535641
2023-12-07 15:02:50.263319,-8.381482606394751,-1.5074657511082663,2.314683009419308,-2.7329578912427874
2023-12-07 15:02:50.276373,8.457057403265102,-0.5875391329317688,-0.9611862315971252,8.040845849782865
2023-12-07 15:02:50.293435,13.845194310209498,-0.6180229072967371,-3.0596652994324574,9.842374666491253
2023-12-07 15:02:50.296443,1.6351921287026894,-1.497463018994895,-1.6915560611496454,1.2062774736923154
2023-12-07 15:02:50.307461,-10.892137356671242,-1.7232096725866948,1.1185970383338648,-6.53134446632105
2023-12-07 15:02:50.315546,-2.506559965810933,0.5211395961526925,1.4796158781864128,-4.085651551215186
2023-12-07 15:02:50.318071,15.921476014448286,1.419498995612677,0.8304446801394119,2.780649123426717
2023-12-07 15:02:50.343248,17.357292990486993,-0.3376309913655344,-0.5410052044338882,5.878138709472542
2023-12-07 15:02:50.343248,3.7187595139986014,-0.9121173388278452,-1.0145952729748686,1.5608582266910065
2023-12-07 15:02:50.345257,-8.008680245201857,-1.3751292287141657,1.2536549901946978,-8.032236299230018
2023-12-07 15:02:50.349285,-8.91085530683569,-2.176962570960632,-0.1459084939785765,-7.904623126553378
2023-12-07 15:02:50.357292,4.36101449770557,-1.1316785887920149,-2.0881433508041884,1.540967441695871
2023-12-07 15:02:50.361292,14.275777632931614,0.2523726970599969,1.1566148065417676,5.036192548765272
2023-12-07 15:02:50.369298,4.931557076169379,-0.2995719641359958,0.5023973444815374,1.3075570076346448
2023-12-07 15:02:50.386297,-7.3353984122022915,-1.988209796686033,-2.8808301260228983,-5.665486510436612
2023-12-07 15:02:50.394300,-7.19948040603032,-2.2768314613378684,-2.640377361728937,-8.078052412468452
2023-12-07 15:02:50.399328,3.4111771542564453,-1.329626335778624,-3.2507632759269067,-0.2637287177774317
2023-12-07 15:02:50.408509,12.091265779925074,-0.7078494329270176,-2.43596892556479,6.503309776329865
2023-12-07 15:02:50.420088,5.546673662186715,-0.5545440165676259,0.4086863021450267,3.5551169570152568
2023-12-07 15:02:50.424082,-6.275604207914886,-1.2851237072551296,0.3759259189547689,-3.19017536166006
2023-12-07 15:02:50.449088,-6.807255191104147,-1.7174592889223297,0.3234053777218002,-4.944828647746896
2023-12-07 15:02:50.449088,3.625426576355781,-0.7728750064000727,0.0794095077543687,-0.2070320037949527
2023-12-07 15:02:50.452087,12.338337492132464,-0.2148539235090737,-2.005929547060638,3.748892505532006
2023-12-07 15:02:50.455090,6.588720140160254,-0.7248452196198851,-2.186940775114856,1.622204727669184
2023-12-07 15:02:50.461094,-4.846317432318273,-1.292814122403356,-0.7817905448432629,-3.226534607474292
2023-12-07 15:02:50.468178,-5.478539813885929,-0.9472267841071506,-0.3675593345284175,-4.304715258362034
2023-12-07 15:02:50.478672,2.042234001766007,0.2252003961363588,-1.2185826136011633,0.0703463188666334
2023-12-07 15:02:50.486721,6.894433024541533,0.8216382081371602,-1.8137836373090628,5.1638394025663725
2023-12-07 15:02:50.492770,4.400345934268921,0.4074881842407136,-0.3550395375185975,4.944509800233679
2023-12-07 15:02:50.503319,-1.4298351028409917,-0.6878284144615472,0.3506061735682791,-1.1923593976426323
2023-12-07 15:02:50.516351,-4.179074459661502,-1.5480313340735108,-1.422994473352875,-4.8804975814932
2023-12-07 15:02:50.524862,-1.2265701165106693,-0.5975273018865639,-2.0608480786986827,-1.0187152870868943
2023-12-07 15:02:50.548827,5.714843061424695,1.0013507997775597,-1.7004178639299283,3.1520280302881494
2023-12-07 15:02:50.560247,8.02861382730321,0.821980549732206,-2.3107725432931585,2.095971229332866
2023-12-07 15:02:50.560247,1.4816476966552716,-0.5191480159659638,-1.768728051998527,-2.06883597086076
2023-12-07 15:02:50.562248,-4.351982049000124,-0.9663084029873816,-0.2697570010005294,-4.703999481438385
2023-12-07 15:02:50.567443,-1.1606907796302912,-0.1233210637920925,-0.05760773766828,-1.9574933972682675
2023-12-07 15:02:50.575573,5.034189946970015,0.5582983369734974,-0.593312723001076,2.002650058014497
2023-12-07 15:02:50.583754,4.812078759302451,0.3355872089404675,-1.2358342266808264,1.8308506396959123
2023-12-07 15:02:50.592816,0.1861069454080064,-0.0237493057210764,-1.6157956009644407,-0.2157986312995049
2023-12-07 15:02:50.598850,-2.856727017211904,-0.4315671504420851,-1.2999332493014897,-1.976736475493256
2023-12-07 15:02:50.611908,-1.7646724490626116,-0.5862161199982707,-1.1694637129113403,-1.802087768086255
2023-12-07 15:02:50.617440,3.738983551583887,0.2041994108346388,-1.4668688879584402,1.582477502999895
2023-12-07 15:02:50.626635,6.075046865948866,0.8237827667981094,-1.4768507288094823,3.4542565101957647
2023-12-07 15:02:50.651998,0.6659901232359613,0.3818664657542256,-1.3621685949173197,0.912491470447709
2023-12-07 15:02:50.651998,-3.9018449096983088,-0.368805770063072,-1.7950207238949658,-2.047825078965217
2023-12-07 15:02:50.653006,-1.9277862077551613,-0.7858040570858659,-2.167409699565939,-2.503275223234392
2023-12-07 15:02:50.659261,2.61787114628226,-0.5609261792495969,-1.6330708199774795,-0.8917115069728415
2023-12-07 15:02:50.666366,25.106543950885285,0.7969198841473146,-11.073111520771658,4.055642934103764
2023-12-07 15:02:50.679693,1.1146951428766103,-1.941203161806128,-17.73978395457422,-4.8951414728005815
2023-12-07 15:02:50.686694,-24.60049264104544,-8.672955174291303,-19.725900231358665,-23.21226818221525
2023-12-07 15:02:50.696700,-21.65071400438093,-6.625697968539332,-16.603102068812465,-18.09982656329759
2023-12-07 15:02:50.700698,10.32904337400898,1.571989840903827,-12.5448715867713,4.285532004838309
2023-12-07 15:02:50.707702,30.29664402877652,3.934216756936128,-9.260335417890383,11.926654817835711
2023-12-07 15:02:50.715704,5.694352846274211,0.1615940308263756,-8.299914695514829,0.8469276989363517
2023-12-07 15:02:50.724228,-29.60574703321373,-5.463302575199514,-8.082388976763934,-15.754736173255196
2023-12-07 15:02:50.755356,-34.50067547011211,-7.037294664473084,-10.89802848031006,-20.15042112888236
2023-12-07 15:02:50.755356,-6.030036210602896,0.1285335017553772,-14.63906153768247,-0.716343083753976
2023-12-07 15:02:50.756358,22.52629960009805,5.339573652689316,-15.227785890751548,14.328658987416416
2023-12-07 15:02:50.781643,9.376309300860989,-0.3483526504188892,-12.365492936209243,-0.3062373614823465
2023-12-07 15:02:50.782649,-21.66799674927913,-6.70598371721728,-4.161143735515954,-18.101684155992352
2023-12-07 15:02:50.782649,-21.40617253672104,-4.817282992687029,-1.6304679124377264,-13.568996876972667
2023-12-07 15:02:50.785645,3.7321022914660418,3.156060418621939,-8.81372145494981,7.59294846525351
2023-12-07 15:02:50.791644,24.18729639024507,9.853558047118176,-10.200982299992532,25.66875739927875
2023-12-07 15:02:50.799646,20.948304330476912,8.3573665222693,-6.1539531491549,21.96307534647761
2023-12-07 15:02:50.809650,-4.848438796310828,3.0426438643848144,-2.754042965235773,6.8337433079163
2023-12-07 15:02:50.823158,-17.174694585727853,-0.5544621726040481,-0.4398062886271945,-2.96758253462658
2023-12-07 15:02:50.837349,7.728427588437164,-0.2373139563375528,-4.538264424570682,-0.1050668655927366
2023-12-07 15:02:50.844350,30.15217024128114,7.346578842205899,-8.198199892593514,20.67407508975573
2023-12-07 15:02:50.849353,15.75026602757143,9.806487187368075,-6.062533390535894,25.76147149503531
2023-12-07 15:02:50.862883,-10.05186892975647,1.4671547546998136,-5.946479205755257,2.5889533591224327
2023-12-07 15:02:50.870000,-18.30445187110912,-0.8996995117561819,-6.7056077841262045,-4.1008477060104855
2023-12-07 15:02:50.876203,4.831254240929243,3.381998713602885,-5.9646258627331,8.769876010136137
2023-12-07 15:02:50.882550,37.54346423921604,6.637828218001686,-4.975166396259898,19.971924712634493
2023-12-07 15:02:50.891811,25.09402350405666,8.032149457513588,-4.392068226540607,22.811707131274083
2023-12-07 15:02:50.900891,-14.563856771521474,2.647155043698667,-8.243099867697763,5.261906931664403
2023-12-07 15:02:50.908341,-21.33838645483513,-2.271342571946614,-10.595694405841792,-8.577424037018382
2023-12-07 15:02:50.916434,0.2533740832430775,2.327604595997907,-8.015726451337946,5.5959616340799725
2023-12-07 15:02:50.921436,21.424748696927857,7.82527129936568,-8.073311019513948,22.323763348852783
2023-12-07 15:02:50.934066,24.778429978343247,4.888446501132224,-6.146146982046239,15.009870912852843
2023-12-07 15:02:50.961105,-1.3330446938478728,-3.282348388698745,-2.651997697949423,-9.072072766269466
2023-12-07 15:02:50.962114,-26.50111522238447,-6.325074645370217,-5.907200786997795,-19.764925646249463
2023-12-07 15:02:50.964110,-5.814867112266447,-3.349958557295192,-9.14413085537835,-10.527255577347503
2023-12-07 15:02:50.970278,36.70644661947185,0.7889293572328524,-10.105990333082405,3.895187610174556
2023-12-07 15:02:50.976369,43.452207791226485,4.512919774024787,-9.782172968428364,15.038897543849638
2023-12-07 15:02:51.003699,15.602203404534215,1.904704704675831,-5.909173647768149,5.818422781666013
2023-12-07 15:02:51.004700,-9.306693388986156,-4.596312964735709,-6.369492642156862,-14.933449505278974
2023-12-07 15:02:51.007699,-5.113168190349022,-4.079734208669329,-9.01446947392237,-13.33133269096647
2023-12-07 15:02:51.012699,21.889383693303508,2.6248330097425265,-9.296684220621753,8.466717287471997
2023-12-07 15:02:51.019219,24.42111867814665,6.574929179081312,-13.22069646320104,20.759691877876207
2023-12-07 15:02:51.026286,-9.670375789423268,3.649935832290224,-13.374354273224611,9.962813692356114
2023-12-07 15:02:51.035411,-34.9032631222563,0.3640252843886849,-6.573659650997938,-1.6265873713647594
2023-12-07 15:02:51.065250,-27.96829756715431,1.2829111575139909,-4.371423671887063,2.054963079115491
2023-12-07 15:02:51.065250,1.4224165162404492,3.5819154022288657,-7.759404785206587,11.62405314763611
2023-12-07 15:02:51.069304,21.976951500436385,6.943760440482938,-10.347384582241034,23.738711949619788
2023-12-07 15:02:51.072378,-1.7137294002644436,5.670820233420186,-10.517581703129204,18.464960210618376
2023-12-07 15:02:51.078651,-37.18136361181775,-0.5387117054535525,-9.470565636953296,-3.963950514727896
2023-12-07 15:02:51.088777,-27.848257880945223,-1.153441298987233,-5.837464058460622,-5.899535869341526
2023-12-07 15:02:51.096834,3.626150094614992,1.7033327904646534,-5.884549618968497,5.548119885308704
2023-12-07 15:02:51.103919,13.865436429109383,3.53036300270274,-14.32213224824208,12.541951253253377
2023-12-07 15:02:51.112012,1.6682611420669171,3.126368828674096,-15.581605930811897,10.542414749036514
2023-12-07 15:02:51.120279,-26.82505850305165,-1.922879640223884,-11.477058328958355,-8.297604942548391
2023-12-07 15:02:51.129353,-38.66227387778534,-3.048347340694415,-14.008839277809756,-12.762235114132938
2023-12-07 15:02:51.139452,-1.877207326758405,0.9310881492622084,-12.148801488649156,2.6119343011460794
2023-12-07 15:02:51.165242,29.98204082954377,1.8898324526540893,-11.4494552832779,6.915553903403737
2023-12-07 15:02:51.166252,7.1144952183244525,1.5818363215708595,-18.31247878274365,5.416491678943937
2023-12-07 15:02:51.167261,-28.971755391887697,-0.4591921047821785,-16.165383276868972,-3.390801300089022
2023-12-07 15:02:51.171299,-32.96473377990336,-2.9754962739686426,-11.653357669327525,-14.094361886168356
2023-12-07 15:02:51.178400,-5.480163886131849,0.396551134328255,-14.780811933285802,-0.2510110245101539
2023-12-07 15:02:51.182527,24.79879133140051,4.029308225733846,-14.104589590827969,15.452106955904624
2023-12-07 15:02:51.192954,22.5353087494628,2.1215841592483264,-10.941192137992616,7.410554640220497
2023-12-07 15:02:51.227005,-11.592319154746484,-1.4041078392849982,-11.7568975404949,-7.8646854296829956
2023-12-07 15:02:51.227005,-31.84307739335495,-2.7422992470389618,-12.722065198845316,-13.386751494165884
2023-12-07 15:02:51.230097,-3.588848410514697,0.1439247096719926,-14.241662965987253,-0.7104781503868696
2023-12-07 15:02:51.235161,29.867850965754,3.550074704991243,-15.363547717977838,14.654461753234749
2023-12-07 15:02:51.242241,14.534677645852858,1.9332515650156503,-11.81790797365561,8.174400133247174
2023-12-07 15:02:51.272291,-22.341594588873942,-2.0809896884467265,-8.81232532224287,-9.71722921936569
2023-12-07 15:02:51.273616,-42.8649023862276,-5.467792419181249,-11.403164990802823,-25.376262457083747
2023-12-07 15:02:51.274635,-37.09731557119515,-6.862061324878721,-16.4657783674954,-32.313436199074474
2023-12-07 15:02:51.279712,-9.000366631414117,-3.648800918487345,-17.484479500173027,-16.956718660531813
2023-12-07 15:02:51.290347,0.5680091299124377,-0.5025279048329887,-12.546496021049736,-0.4754924286928838
2023-12-07 15:02:51.300782,-27.47332227793384,-2.89107332758088,-9.469091006480578,-11.770805850336616
2023-12-07 15:02:51.307968,-51.8401300107615,-6.145167905523424,-6.992510843163734,-28.706638550454976
2023-12-07 15:02:51.319611,-35.763373316882635,-4.768958201156541,-3.125442620725609,-22.580486436341825
2023-12-07 15:02:51.324613,2.0831085534036364,-0.3980688241861243,-5.830533158435111,-1.031961980040642
2023-12-07 15:02:51.327613,9.600560211562088,1.1380485594090046,-6.854992155380581,7.260553903641949
2023-12-07 15:02:51.338616,-25.28128803601347,-2.593764945557902,-4.949543369715937,-12.028523231342966
2023-12-07 15:02:51.346616,-57.46422757747227,-6.068748236320427,-8.112858520729032,-31.07039191655505
2023-12-07 15:02:51.375989,-43.82770635282021,-4.939536049782158,-6.051742314719857,-26.022993230838736
2023-12-07 15:02:51.375989,0.8814009079930234,-1.0077632641183167,-4.645489897884963,-6.208700774726602
2023-12-07 15:02:51.378086,14.897463189871308,2.14255647446326,-11.024526697863609,13.005203582131609
2023-12-07 15:02:51.382186,-18.001924160979332,0.3653297649791477,-12.551576100268427,5.569985056526006
2023-12-07 15:02:51.387235,-44.26814245175382,-3.7438204781101976,-11.073635490336638,-20.68383093351306
2023-12-07 15:02:51.395294,-29.3223240690928,-2.9098823387672903,-8.139053297911424,-17.717138244219367
2023-12-07 15:02:51.410566,4.322329684615728,1.416096013344128,-1.9127035509152528,10.754410096342715
2023-12-07 15:02:51.418603,17.92619912337712,3.5188703546464715,0.841142170675795,27.003762478496515
2023-12-07 15:02:51.432175,-1.4719198550868382,1.3241052186494449,-0.2276176473727192,13.743414860588889
2023-12-07 15:02:51.458709,-32.23518773559666,-2.965667963977121,-4.383977041885086,-16.859666669032606
2023-12-07 15:02:51.459725,-37.717979037501735,-3.7653518536317416,-7.799429438932688,-23.07682987198302
2023-12-07 15:02:51.461794,-3.09172731960044,-0.0890695143325533,-6.204868392140909,2.350093460297356
2023-12-07 15:02:51.463816,27.60823032710276,2.4307516012391264,-2.888588760222268,18.306961561734862
2023-12-07 15:02:51.467850,4.882658145538356,-0.0056756572018277,-0.3515942767684053,1.968652134928237
2023-12-07 15:02:51.484219,-34.10141878667287,-3.14439086599846,0.7529554075314836,-16.593797170565715
2023-12-07 15:02:51.497332,-28.920316534944696,-1.6421161889116704,4.025716109008473,-2.419054223821303
2023-12-07 15:02:51.501369,5.604098234368884,1.1630505975692165,6.272782751250725,16.563361339973206
2023-12-07 15:02:51.505539,25.81308815868752,1.5249725676560837,3.2230327999698574,14.495690356636944
2023-12-07 15:02:51.515550,13.158586791688355,0.7625118233692448,5.052432336509357,11.524033467049517
2023-12-07 15:02:51.528149,-19.46679984410748,-1.3610711271650382,8.530801695477004,0.2737663709135338
2023-12-07 15:02:51.535208,-33.28250081703007,-3.4377665461998816,6.131605445069803,-19.79262375063904
2023-12-07 15:02:51.542264,-9.505366334652503,-1.5262723148346329,7.0528474812045046,-7.1932076122923485
2023-12-07 15:02:51.547268,25.5832961079131,2.0787484454819087,8.553819710862482,23.570880509541496
2023-12-07 15:02:51.558299,25.423029702421733,1.5861999733960566,4.269775501681902,16.749098067072865
2023-12-07 15:02:51.597492,-10.62692069220411,-1.8051452652847373,4.022511202103817,-12.835638336166172
2023-12-07 15:02:51.597492,-22.40065495862128,-2.652768321135757,9.215449695419666,-19.34383575939534
2023-12-07 15:02:51.599491,5.297884440150798,-0.4111430259706958,8.61951487780162,-2.21181719025458
2023-12-07 15:02:51.606545,27.514938729558,1.529780328787769,6.951694134918251,14.16376028173146
2023-12-07 15:02:51.611843,21.144913985794528,0.7910160095828228,13.938306572270086,5.665921894615293
2023-12-07 15:02:51.618645,-11.673424699315436,-1.92708014504489,17.42324668951747,-18.560639314743508
2023-12-07 15:02:51.623679,-37.0109547989329,-3.2246246382389323,13.008442811157444,-23.74934791010609
2023-12-07 15:02:51.638161,-10.520691352329113,-1.010676847490732,11.135393770266113,-5.075577541464846
2023-12-07 15:02:51.647168,34.20330157413792,2.2321659932931985,10.097426501010334,19.21559327158925
2023-12-07 15:02:51.660300,31.872859716049227,2.3297016451104127,9.622427586045148,23.40885021963496
2023-12-07 15:02:51.671448,-5.21598492183086,-0.4556098994775234,10.436743730071257,-0.1352346924190455
2023-12-07 15:02:51.700302,-22.127965598577457,-1.8478622797623216,10.717166112524158,-14.299089768005182
2023-12-07 15:02:51.710659,2.443399815105207,-0.0900556023640404,15.224146237317653,-0.7788279672559352
2023-12-07 15:02:51.712695,38.77230865600525,2.094048796967307,19.036844231842768,10.777696589699511
2023-12-07 15:02:51.715739,40.93426346009037,1.9022663841364849,15.722632091712397,3.672395066500501
2023-12-07 15:02:51.720290,9.21921660721818,0.1003868544040832,12.595173751831956,-5.598846500015793
2023-12-07 15:02:51.728458,-16.362920667592896,-1.1108605504443323,16.785136106321144,-7.235719611291667
2023-12-07 15:02:51.737550,-2.062398538484528,-0.1806598193516926,23.085511104569232,-0.8797194946423637
2023-12-07 15:02:51.749721,43.6170993618335,2.8896410676739004,23.19042400206497,22.134759847479447
2023-12-07 15:02:51.759820,59.00224854685088,4.1055994766759145,21.75747651185398,34.37130691508132
2023-12-07 15:02:51.765815,21.295186470935107,1.3864587978320422,22.25745536435428,9.632564387970378
2023-12-07 15:02:51.774818,-12.25821454047717,-0.7968100462916827,21.996921474898297,-6.02521315053426
2023-12-07 15:02:51.779879,-3.733154523922058,0.1457527765372147,23.214254073587167,8.903027864956686
2023-12-07 15:02:51.786928,32.11262113840301,2.415103102715073,23.96942702532728,23.871789719029657
2023-12-07 15:02:51.824464,57.00963070771703,4.165284482073138,22.53090808850172,28.50007950525992
2023-12-07 15:02:51.825465,35.27727187259496,2.966790906769205,20.60204634007184,15.42652319615128
2023-12-07 15:02:51.828464,-9.393112263417285,0.510840591187127,17.34558889280953,-3.3842353252474733
2023-12-07 15:02:51.833463,-13.3808330744111,-0.0205536682845525,15.448087028735904,-4.9976868641841365
2023-12-07 15:02:51.838490,23.26848837774679,1.81425020597609,13.507487002905426,6.796335115192245
2023-12-07 15:02:51.846688,43.96783678406796,3.3139340924953427,12.099375594627835,25.612057053339488
2023-12-07 15:02:51.855746,22.47958642657298,2.3474429433074686,15.394945934011629,20.77083798371134
2023-12-07 15:02:51.863748,-10.224590094581382,0.2621863814137568,17.206071320046938,-16.164714730583896
2023-12-07 15:02:51.877752,-10.51778961073433,0.0492327194502676,16.249150707970635,-23.6641639557978
2023-12-07 15:02:51.899757,24.218117877351897,2.2897816567035774,19.68891965438282,9.507902511606831
2023-12-07 15:02:51.901756,49.48346242737101,4.207265295373642,22.2449347862374,31.10047051915556
2023-12-07 15:02:51.906763,26.67318132339621,3.02916760251795,19.05213695081801,20.054408770463866
2023-12-07 15:02:51.935282,-17.028785692686427,0.4448699244118415,17.866938477331534,-7.329088807434888
2023-12-07 15:02:51.946298,-20.62762193099794,0.3812339183676946,19.235562135481487,-16.755352674954977
2023-12-07 15:02:51.947305,19.762385769990644,2.706711152908423,17.671529397161475,2.150201238402884
2023-12-07 15:02:51.950346,46.26756942302282,4.190633277786641,13.87251634868104,21.77460331325208
2023-12-07 15:02:51.952562,24.43619435718433,3.0346549040493014,10.354097529304738,18.21705654061619
